Time,Displacement,Force
(s),(mm),(kN)
0.0000,0.0000,0.0001
0.0200,0.0001,0.0000
0.0400,0.0004,0.0003
0.0600,0.0010,0.0023
0.0800,0.0019,0.0076
0.1000,0.0029,0.0156
0.1200,0.0037,0.0244
0.1400,0.0043,0.0320
0.1600,0.0049,0.0380
0.1800,0.0057,0.0432
0.2000,0.0066,0.0490
0.2200,0.0074,0.0556
0.2400,0.0082,0.0621
0.2600,0.0088,0.0680
0.2800,0.0094,0.0732
0.3000,0.0099,0.0773
0.3200,0.0105,0.0811
0.3400,0.0113,0.0852
0.3600,0.0121,0.0904
0.3800,0.0129,0.0962
0.4000,0.0136,0.1018
0.4200,0.0141,0.1068
0.4400,0.0146,0.1112
0.4600,0.0152,0.1152
0.4800,0.0159,0.1190
0.5000,0.0168,0.1237
0.5200,0.0176,0.1294
0.5400,0.0183,0.1352
0.5600,0.0189,0.1405
0.5800,0.0194,0.1447
0.6000,0.0199,0.1483
0.6200,0.0205,0.1517
0.6400,0.0213,0.1554
0.6600,0.0221,0.1602
0.6800,0.0229,0.1658
0.7000,0.0236,0.1714
0.7200,0.0242,0.1765
0.7400,0.0247,0.1808
0.7600,0.0252,0.1844
0.7800,0.0259,0.1879
0.8000,0.0267,0.1924
0.8200,0.0275,0.1978
0.8400,0.0282,0.2033
0.8600,0.0289,0.2084
0.8800,0.0294,0.2128
0.9000,0.0299,0.2166
0.9200,0.0305,0.2199
0.9400,0.0312,0.2234
0.9600,0.0320,0.2280
0.9800,0.0328,0.2335
1.0000,0.0335,0.2393
1.0200,0.0342,0.2447
1.0400,0.0347,0.2492
1.0600,0.0352,0.2528
1.0800,0.0358,0.2563
1.1000,0.0366,0.2603
1.1200,0.0374,0.2653
1.1400,0.0382,0.2709
1.1600,0.0388,0.2762
1.1800,0.0395,0.2810
1.2000,0.0400,0.2851
1.2200,0.0405,0.2888
1.2400,0.0412,0.2925
1.2600,0.0419,0.2968
1.2800,0.0428,0.3021
1.3000,0.0436,0.3080
1.3200,0.0442,0.3137
1.3400,0.0448,0.3187
1.3600,0.0453,0.3224
1.3800,0.0459,0.3258
1.4000,0.0466,0.3295
1.4200,0.0474,0.3345
1.4400,0.0482,0.3403
1.4600,0.0489,0.3459
1.4800,0.0496,0.3511
1.5000,0.0501,0.3555
1.5200,0.0506,0.3593
1.5400,0.0512,0.3630
1.5600,0.0520,0.3672
1.5800,0.0528,0.3723
1.6000,0.0536,0.3780
1.6200,0.0543,0.3839
1.6400,0.0549,0.3892
1.6600,0.0553,0.3933
1.6800,0.0559,0.3966
1.7000,0.0566,0.4003
1.7200,0.0574,0.4048
1.7400,0.0582,0.4103
1.7600,0.0589,0.4162
1.7800,0.0596,0.4218
1.8000,0.0601,0.4267
1.8200,0.0607,0.4308
1.8400,0.0612,0.4345
1.8600,0.0619,0.4384
1.8800,0.0627,0.4431
1.9000,0.0635,0.4487
1.9200,0.0642,0.4547
1.9400,0.0649,0.4598
1.9600,0.0654,0.4640
1.9800,0.0659,0.4675
2.0000,0.0665,0.4711
2.0200,0.0673,0.4753
2.0400,0.0681,0.4807
2.0600,0.0689,0.4868
2.0800,0.0696,0.4927
2.1000,0.0702,0.4980
2.1200,0.0707,0.5023
2.1400,0.0713,0.5058
2.1600,0.0719,0.5093
2.1800,0.0726,0.5135
2.2000,0.0734,0.5187
2.2200,0.0742,0.5245
2.2400,0.0748,0.5300
2.2600,0.0754,0.5349
2.2800,0.0759,0.5387
2.3000,0.0765,0.5420
2.3200,0.0772,0.5458
2.3400,0.0781,0.5510
2.3600,0.0789,0.5571
2.3800,0.0796,0.5629
2.4000,0.0802,0.5681
2.4200,0.0808,0.5726
2.4400,0.0813,0.5761
2.4600,0.0819,0.5793
2.4800,0.0826,0.5830
2.5000,0.0834,0.5880
2.5200,0.0842,0.5935
2.5400,0.0849,0.5991
2.5600,0.0855,0.6043
2.5800,0.0860,0.6084
2.6000,0.0866,0.6120
2.6200,0.0873,0.6156
2.6400,0.0881,0.6202
2.6600,0.0889,0.6259
2.6800,0.0896,0.6317
2.7000,0.0903,0.6368
2.7200,0.0908,0.6411
2.7400,0.0913,0.6447
2.7600,0.0919,0.6476
2.7800,0.0925,0.6510
2.8000,0.0934,0.6555
2.8200,0.0941,0.6613
2.8400,0.0949,0.6672
2.8600,0.0956,0.6725
2.8800,0.0961,0.6768
2.9000,0.0966,0.6804
2.9200,0.0973,0.6838
2.9400,0.0981,0.6880
2.9600,0.0989,0.6934
2.9800,0.0996,0.6994
3.0000,0.1003,0.7046
3.0200,0.1008,0.7089
3.0400,0.1014,0.7125
3.0600,0.1018,0.7157
3.0800,0.1025,0.7192
3.1000,0.1033,0.7236
3.1200,0.1041,0.7292
3.1400,0.1049,0.7353
3.1600,0.1056,0.7409
3.1800,0.1061,0.7456
3.2000,0.1067,0.7490
3.2200,0.1072,0.7522
3.2400,0.1080,0.7563
3.2600,0.1088,0.7616
3.2800,0.1096,0.7672
3.3000,0.1102,0.7724
3.3200,0.1108,0.7771
3.3400,0.1114,0.7812
3.3600,0.1119,0.7847
3.3800,0.1125,0.7879
3.4000,0.1132,0.7918
3.4200,0.1141,0.7974
3.4400,0.1149,0.8037
3.4600,0.1156,0.8095
3.4800,0.1162,0.8143
3.5000,0.1167,0.8181
3.5200,0.1172,0.8214
3.5400,0.1179,0.8249
3.5600,0.1187,0.8294
3.5800,0.1195,0.8350
3.6000,0.1202,0.8407
3.6200,0.1208,0.8458
3.6400,0.1213,0.8501
3.6600,0.1219,0.8536
3.6800,0.1225,0.8570
3.7000,0.1232,0.8607
3.7200,0.1240,0.8657
3.7400,0.1249,0.8721
3.7600,0.1256,0.8784
3.7800,0.1262,0.8835
3.8000,0.1267,0.8874
3.8200,0.1272,0.8905
3.8400,0.1278,0.8936
3.8600,0.1286,0.8978
3.8800,0.1294,0.9033
3.9000,0.1302,0.9095
3.9200,0.1309,0.9152
3.9400,0.1315,0.9201
3.9600,0.1320,0.9240
3.9800,0.1326,0.9275
4.0000,0.1332,0.9310
4.0200,0.1340,0.9356
4.0400,0.1349,0.9415
4.0600,0.1356,0.9478
4.0800,0.1362,0.9531
4.1000,0.1367,0.9573
4.1200,0.1372,0.9606
4.1400,0.1378,0.9637
4.1600,0.1386,0.9676
4.1800,0.1394,0.9731
4.2000,0.1402,0.9796
4.2200,0.1409,0.9857
4.2400,0.1416,0.9908
4.2600,0.1421,0.9951
4.2800,0.1427,0.9986
4.3000,0.1432,1.0022
4.3200,0.1441,1.0063
4.3400,0.1448,1.0118
4.3600,0.1456,1.0180
4.3800,0.1462,1.0236
4.4000,0.1468,1.0283
4.4200,0.1473,1.0319
4.4400,0.1479,1.0353
4.4600,0.1486,1.0391
4.4800,0.1494,1.0442
4.5000,0.1502,1.0505
4.5200,0.1510,1.0569
4.5400,0.1516,1.0625
4.5600,0.1522,1.0670
4.5800,0.1527,1.0707
4.6000,0.1533,1.0741
4.6200,0.1540,1.0780
4.6400,0.1547,1.0828
4.6600,0.1555,1.0886
4.6800,0.1562,1.0947
4.7000,0.1569,1.1001
4.7200,0.1573,1.1045
4.7400,0.1579,1.1081
4.7600,0.1586,1.1117
4.7800,0.1594,1.1162
4.8000,0.1602,1.1222
4.8200,0.1610,1.1287
4.8400,0.1616,1.1345
4.8600,0.1622,1.1392
4.8800,0.1626,1.1428
4.9000,0.1632,1.1460
4.9200,0.1638,1.1497
4.9400,0.1646,1.1544
4.9600,0.1654,1.1603
4.9800,0.1662,1.1666
5.0000,0.1668,1.1725
5.0200,0.1674,1.1775
5.0400,0.1679,1.1813
5.0600,0.1685,1.1849
5.0800,0.1693,1.1891
5.1000,0.1701,1.1947
5.1200,0.1709,1.2010
5.1400,0.1715,1.2068
5.1600,0.1721,1.2117
5.1800,0.1727,1.2158
5.2000,0.1732,1.2192
5.2200,0.1738,1.2227
5.2400,0.1746,1.2273
5.2600,0.1754,1.2334
5.2800,0.1762,1.2400
5.3000,0.1769,1.2463
5.3200,0.1775,1.2514
5.3400,0.1780,1.2554
5.3600,0.1786,1.2592
5.3800,0.1794,1.2633
5.4000,0.1801,1.2686
5.4200,0.1809,1.2745
5.4400,0.1816,1.2804
5.4600,0.1822,1.2858
5.4800,0.1827,1.2904
5.5000,0.1833,1.2945
5.5200,0.1839,1.2982
5.5400,0.1846,1.3024
5.5600,0.1854,1.3081
5.5800,0.1862,1.3147
5.6000,0.1870,1.3212
5.6200,0.1876,1.3269
5.6400,0.1881,1.3312
5.6600,0.1886,1.3347
5.6800,0.1893,1.3381
5.7000,0.1900,1.3428
5.7200,0.1908,1.3490
5.7400,0.1916,1.3554
5.7600,0.1922,1.3614
5.7800,0.1928,1.3666
5.8000,0.1933,1.3710
5.8200,0.1939,1.3749
5.8400,0.1946,1.3789
5.8600,0.1954,1.3841
5.8800,0.1962,1.3904
5.9000,0.1970,1.3968
5.9200,0.1976,1.4025
5.9400,0.1981,1.4070
5.9600,0.1986,1.4106
5.9800,0.1992,1.4141
6.0000,0.2000,1.4187
6.0200,0.2008,1.4246
6.0400,0.2015,1.4314
6.0600,0.2022,1.4376
6.0800,0.2029,1.4429
6.1000,0.2034,1.4473
6.1200,0.2039,1.4510
6.1400,0.2046,1.4547
6.1600,0.2054,1.4597
6.1800,0.2061,1.4660
6.2000,0.2069,1.4724
6.2200,0.2075,1.4782
6.2400,0.2081,1.4829
6.2600,0.2086,1.4867
6.2800,0.2091,1.4903
6.3000,0.2099,1.4946
6.3200,0.2107,1.5005
6.3400,0.2115,1.5071
6.3600,0.2122,1.5134
6.3800,0.2128,1.5190
6.4000,0.2134,1.5238
6.4200,0.2139,1.5277
6.4400,0.2146,1.5314
6.4600,0.2152,1.5357
6.4800,0.2161,1.5415
6.5000,0.2168,1.5482
6.5200,0.2175,1.5546
6.5400,0.2181,1.5601
6.5600,0.2186,1.5644
6.5800,0.2192,1.5681
6.6000,0.2199,1.5720
6.6200,0.2207,1.5775
6.6400,0.2215,1.5842
6.6600,0.2223,1.5911
6.6800,0.2230,1.5970
6.7000,0.2234,1.6019
6.7200,0.2240,1.6057
6.7400,0.2245,1.6093
6.7600,0.2252,1.6133
6.7800,0.2260,1.6190
6.8000,0.2268,1.6260
6.8200,0.2275,1.6326
6.8400,0.2282,1.6384
6.8600,0.2287,1.6433
6.8800,0.2292,1.6470
6.9000,0.2299,1.6507
6.9200,0.2307,1.6558
6.9400,0.2316,1.6623
6.9600,0.2323,1.6695
6.9800,0.2330,1.6760
7.0000,0.2335,1.6810
7.0200,0.2340,1.6849
7.0400,0.2345,1.6883
7.0600,0.2352,1.6923
7.0800,0.2360,1.6975
7.1000,0.2368,1.7043
7.1200,0.2376,1.7113
7.1400,0.2382,1.7177
7.1600,0.2388,1.7230
7.1800,0.2394,1.7270
7.2000,0.2399,1.7308
7.2200,0.2407,1.7355
7.2400,0.2416,1.7421
7.2600,0.2423,1.7492
7.2800,0.2429,1.7553
7.3000,0.2435,1.7605
7.3200,0.2440,1.7648
7.3400,0.2446,1.7687
7.3600,0.2452,1.7724
7.3800,0.2460,1.7772
7.4000,0.2468,1.7837
7.4200,0.2476,1.7910
7.4400,0.2483,1.7979
7.4600,0.2488,1.8037
7.4800,0.2493,1.8079
7.5000,0.2499,1.8114
7.5200,0.2506,1.8154
7.5400,0.2514,1.8209
7.5600,0.2522,1.8277
7.5800,0.2529,1.8344
7.6000,0.2535,1.8401
7.6200,0.2540,1.8450
7.6400,0.2546,1.8493
7.6600,0.2552,1.8532
7.6800,0.2559,1.8576
7.7000,0.2567,1.8633
7.7200,0.2575,1.8705
7.7400,0.2583,1.8777
7.7600,0.2589,1.8841
7.7800,0.2593,1.8887
7.8000,0.2599,1.8922
7.8200,0.2605,1.8958
7.8400,0.2613,1.9006
7.8600,0.2621,1.9069
7.8800,0.2629,1.9139
7.9000,0.2635,1.9204
7.9200,0.2641,1.9261
7.9400,0.2646,1.9309
7.9600,0.2652,1.9350
7.9800,0.2659,1.9390
8.0000,0.2667,1.9442
8.0200,0.2675,1.9508
8.0400,0.2683,1.9581
8.0600,0.2689,1.9646
8.0800,0.2694,1.9698
8.1000,0.2699,1.9736
8.1200,0.2705,1.9770
8.1400,0.2712,1.9815
8.1600,0.2721,1.9878
8.1800,0.2729,1.9954
8.2000,0.2736,2.0025
8.2200,0.2742,2.0084
8.2400,0.2747,2.0132
8.2600,0.2752,2.0173
8.2800,0.2759,2.0213
8.3000,0.2767,2.0262
8.3200,0.2776,2.0329
8.3400,0.2782,2.0399
8.3600,0.2789,2.0464
8.3800,0.2794,2.0518
8.4000,0.2800,2.0563
8.4200,0.2806,2.0601
8.4400,0.2812,2.0643
8.4600,0.2821,2.0701
8.4800,0.2829,2.0772
8.5000,0.2836,2.0845
8.5200,0.2843,2.0909
8.5400,0.2848,2.0963
8.5600,0.2853,2.1002
8.5800,0.2859,2.1038
8.6000,0.2866,2.1081
8.6200,0.2874,2.1141
8.6400,0.2882,2.1212
8.6600,0.2889,2.1281
8.6800,0.2895,2.1341
8.7000,0.2900,2.1388
8.7200,0.2906,2.1429
8.7400,0.2912,2.1469
8.7600,0.2921,2.1521
8.7800,0.2929,2.1589
8.8000,0.2936,2.1661
8.8200,0.2943,2.1729
8.8400,0.2948,2.1787
8.8600,0.2953,2.1830
8.8800,0.2959,2.1865
8.9000,0.2965,2.1904
8.9200,0.2973,2.1955
8.9400,0.2981,2.2022
8.9600,0.2988,2.2094
8.9800,0.2995,2.2159
9.0000,0.3001,2.2215
9.0200,0.3006,2.2259
9.0400,0.3012,2.2296
9.0600,0.3020,2.2343
9.0800,0.3028,2.2408
9.1000,0.3036,2.2485
9.1200,0.3043,2.2555
9.1400,0.3048,2.2612
9.1600,0.3054,2.2657
9.1800,0.3059,2.2694
9.2000,0.3065,2.2731
9.2200,0.3072,2.2778
9.2400,0.3080,2.2843
9.2600,0.3088,2.2917
9.2800,0.3095,2.2991
9.3000,0.3101,2.3054
9.3200,0.3106,2.3101
9.3400,0.3112,2.3138
9.3600,0.3120,2.3182
9.3800,0.3128,2.3245
9.4000,0.3136,2.3318
9.4200,0.3143,2.3387
9.4400,0.3149,2.3447
9.4600,0.3154,2.3495
9.4800,0.3159,2.3535
9.5000,0.3165,2.3576
9.5200,0.3172,2.3621
9.5400,0.3181,2.3684
9.5600,0.3189,2.3761
9.5800,0.3196,2.3837
9.6000,0.3202,2.3903
9.6200,0.3207,2.3954
9.6400,0.3213,2.3992
9.6600,0.3220,2.4031
9.6800,0.3228,2.4086
9.7000,0.3235,2.4154
9.7200,0.3243,2.4227
9.7400,0.3249,2.4295
9.7600,0.3254,2.4350
9.7800,0.3260,2.4393
9.8000,0.3265,2.4433
9.8200,0.3272,2.4475
9.8400,0.3281,2.4534
9.8600,0.3289,2.4607
9.8800,0.3296,2.4684
9.9000,0.3303,2.4752
9.9200,0.3307,2.4804
9.9400,0.3313,2.4844
9.9600,0.3319,2.4885
9.9800,0.3327,2.4933
10.0000,0.3334,2.4998
10.0200,0.3342,2.5071
10.0400,0.3349,2.5141
10.0600,0.3355,2.5199
10.0800,0.3360,2.5245
10.1000,0.3365,2.5286
10.1200,0.3372,2.5325
10.1400,0.3380,2.5378
10.1600,0.3389,2.5450
10.1800,0.3396,2.5530
10.2000,0.3402,2.5602
10.2200,0.3408,2.5655
10.2400,0.3412,2.5693
10.2600,0.3418,2.5724
10.2800,0.3425,2.5769
10.3000,0.3434,2.5832
10.3200,0.3442,2.5907
10.3400,0.3449,2.5982
10.3600,0.3455,2.6046
10.3800,0.3461,2.6096
10.4000,0.3466,2.6138
10.4200,0.3472,2.6179
10.4400,0.3480,2.6228
10.4600,0.3488,2.6295
10.4800,0.3496,2.6370
10.5000,0.3502,2.6439
10.5200,0.3508,2.6496
10.5400,0.3513,2.6540
10.5600,0.3518,2.6576
10.5800,0.3525,2.6615
10.6000,0.3534,2.6672
10.6200,0.3542,2.6751
10.6400,0.3550,2.6832
10.6600,0.3556,2.6902
10.6800,0.3562,2.6958
10.7000,0.3567,2.7003
10.7200,0.3573,2.7042
10.7400,0.3580,2.7082
10.7600,0.3588,2.7137
10.7800,0.3595,2.7210
10.8000,0.3602,2.7283
10.8200,0.3609,2.7348
10.8400,0.3613,2.7401
10.8600,0.3619,2.7443
10.8800,0.3625,2.7483
10.9000,0.3633,2.7533
10.9200,0.3642,2.7602
10.9400,0.3650,2.7681
10.9600,0.3657,2.7755
10.9800,0.3662,2.7817
11.0000,0.3667,2.7864
11.0200,0.3673,2.7899
11.0400,0.3679,2.7937
11.0600,0.3687,2.7992
11.0800,0.3695,2.8061
11.1000,0.3702,2.8137
11.1200,0.3709,2.8207
11.1400,0.3714,2.8265
11.1600,0.3719,2.8309
11.1800,0.3725,2.8347
11.2000,0.3733,2.8394
11.2200,0.3741,2.8459
11.2400,0.3749,2.8535
11.2600,0.3756,2.8612
11.2800,0.3762,2.8674
11.3000,0.3767,2.8720
11.3200,0.3772,2.8758
11.3400,0.3778,2.8796
11.3600,0.3786,2.8845
11.3800,0.3794,2.8911
11.4000,0.3802,2.8985
11.4200,0.3809,2.9057
11.4400,0.3815,2.9118
11.4600,0.3820,2.9166
11.4800,0.3826,2.9207
11.5000,0.3833,2.9250
11.5200,0.3841,2.9311
11.5400,0.3849,2.9386
11.5600,0.3856,2.9459
11.5800,0.3862,2.9522
11.6000,0.3867,2.9570
11.6200,0.3872,2.9609
11.6400,0.3878,2.9647
11.6600,0.3885,2.9693
11.6800,0.3893,2.9752
11.7000,0.3901,2.9826
11.7200,0.3909,2.9906
11.7400,0.3915,2.9975
11.7600,0.3920,3.0029
11.7800,0.3926,3.0069
11.8000,0.3933,3.0110
11.8200,0.3940,3.0161
11.8400,0.3948,3.0224
11.8600,0.3955,3.0295
11.8800,0.3962,3.0363
11.9000,0.3968,3.0424
11.9200,0.3973,3.0473
11.9400,0.3979,3.0514
11.9600,0.3985,3.0554
11.9800,0.3993,3.0610
12.0000,0.4002,3.0682
12.0200,0.4009,3.0760
12.0400,0.4016,3.0831
12.0600,0.4021,3.0888
12.0800,0.4026,3.0931
12.1000,0.4032,3.0968
12.1200,0.4040,3.1014
12.1400,0.4047,3.1075
12.1600,0.4055,3.1150
12.1800,0.4062,3.1222
12.2000,0.4069,3.1286
12.2200,0.4074,3.1340
12.2400,0.4079,3.1383
12.2600,0.4086,3.1423
12.2800,0.4094,3.1475
12.3000,0.4102,3.1545
12.3200,0.4109,3.1620
12.3400,0.4116,3.1692
12.3600,0.4121,3.1752
12.3800,0.4127,3.1797
12.4000,0.4132,3.1833
12.4200,0.4139,3.1872
12.4400,0.4147,3.1932
12.4600,0.4155,3.2008
12.4800,0.4162,3.2083
12.5000,0.4169,3.2152
12.5200,0.4175,3.2207
12.5400,0.4180,3.2250
12.5600,0.4186,3.2291
12.5800,0.4194,3.2339
12.6000,0.4202,3.2407
12.6200,0.4209,3.2480
12.6400,0.4216,3.2550
12.6600,0.4221,3.2609
12.6800,0.4226,3.2655
12.7000,0.4232,3.2694
12.7200,0.4239,3.2736
12.7400,0.4247,3.2791
12.7600,0.4255,3.2862
12.7800,0.4263,3.2940
12.8000,0.4269,3.3011
12.8200,0.4275,3.3071
12.8400,0.4280,3.3117
12.8600,0.4286,3.3155
12.8800,0.4293,3.3197
12.9000,0.4300,3.3254
12.9200,0.4308,3.3325
12.9400,0.4315,3.3398
12.9600,0.4321,3.3463
12.9800,0.4326,3.3516
13.0000,0.4332,3.3557
13.0200,0.4338,3.3597
13.0400,0.4346,3.3646
13.0600,0.4354,3.3716
13.0800,0.4362,3.3796
13.1000,0.4369,3.3869
13.1200,0.4375,3.3932
13.1400,0.4380,3.3978
13.1600,0.4386,3.4013
13.1800,0.4392,3.4051
13.2000,0.4400,3.4102
13.2200,0.4407,3.4169
13.2400,0.4415,3.4246
13.2600,0.4422,3.4318
13.2800,0.4427,3.4378
13.3000,0.4432,3.4425
13.3200,0.4438,3.4465
13.3400,0.4446,3.4510
13.3600,0.4455,3.4575
13.3800,0.4463,3.4653
13.4000,0.4469,3.4729
13.4200,0.4475,3.4789
13.4400,0.4480,3.4833
13.4600,0.4486,3.4871
13.4800,0.4492,3.4911
13.5000,0.4499,3.4962
13.5200,0.4507,3.5028
13.5400,0.4516,3.5105
13.5600,0.4522,3.5181
13.5800,0.4528,3.5245
13.6000,0.4533,3.5291
13.6200,0.4539,3.5327
13.6400,0.4547,3.5369
13.6600,0.4555,3.5431
13.6800,0.4563,3.5508
13.7000,0.4569,3.5582
13.7200,0.4576,3.5645
13.7400,0.4581,3.5696
13.7600,0.4586,3.5737
13.7800,0.4592,3.5776
13.8000,0.4599,3.5821
13.8200,0.4608,3.5883
13.8400,0.4616,3.5959
13.8600,0.4623,3.6037
13.8800,0.4629,3.6106
13.9000,0.4634,3.6161
13.9200,0.4639,3.6201
13.9400,0.4646,3.6237
13.9600,0.4654,3.6286
13.9800,0.4662,3.6354
14.0000,0.4669,3.6430
14.0200,0.4676,3.6498
14.0400,0.4681,3.6554
14.0600,0.4686,3.6600
14.0800,0.4692,3.6641
14.1000,0.4699,3.6683
14.1200,0.4707,3.6738
14.1400,0.4715,3.6811
14.1600,0.4723,3.6890
14.1800,0.4730,3.6964
14.2000,0.4735,3.7024
14.2200,0.4739,3.7061
14.2400,0.4745,3.7090
14.2600,0.4752,3.7132
14.2800,0.4761,3.7195
14.3000,0.4768,3.7271
14.3200,0.4775,3.7344
14.3400,0.4781,3.7407
14.3600,0.4787,3.7460
14.3800,0.4792,3.7503
14.4000,0.4798,3.7544
14.4200,0.4806,3.7590
14.4400,0.4814,3.7657
14.4600,0.4822,3.7733
14.4800,0.4829,3.7807
14.5000,0.4834,3.7867
14.5200,0.4840,3.7911
14.5400,0.4845,3.7946
14.5600,0.4852,3.7986
14.5800,0.4860,3.8043
14.6000,0.4868,3.8117
14.6200,0.4876,3.8194
14.6400,0.4882,3.8264
14.6600,0.4887,3.8321
14.6800,0.4893,3.8364
14.7000,0.4899,3.8401
14.7200,0.4907,3.8447
14.7400,0.4915,3.8511
14.7600,0.4922,3.8588
14.7800,0.4929,3.8661
14.8000,0.4935,3.8722
14.8200,0.4940,3.8769
14.8400,0.4946,3.8807
14.8600,0.4952,3.8845
14.8800,0.4960,3.8895
14.9000,0.4968,3.8967
14.9200,0.4976,3.9046
14.9400,0.4983,3.9121
14.9600,0.4989,3.9185
14.9800,0.4994,3.9231
15.0000,0.5000,3.9269
15.0200,0.5006,3.9308
15.0400,0.5014,3.9361
15.0600,0.5021,3.9430
15.0800,0.5029,3.9504
15.1000,0.5036,3.9572
15.1200,0.5041,3.9631
15.1400,0.5046,3.9675
15.1600,0.5052,3.9714
15.1800,0.5060,3.9761
15.2000,0.5068,3.9828
15.2200,0.5076,3.9906
15.2400,0.5083,3.9980
15.2600,0.5089,4.0044
15.2800,0.5094,4.0092
15.3000,0.5099,4.0125
15.3200,0.5105,4.0156
15.3400,0.5113,4.0200
15.3600,0.5120,4.0264
15.3800,0.5128,4.0340
15.4000,0.5135,4.0416
15.4200,0.5141,4.0482
15.4400,0.5147,4.0533
15.4600,0.5152,4.0571
15.4800,0.5159,4.0613
15.5000,0.5168,4.0672
15.5200,0.5176,4.0747
15.5400,0.5183,4.0824
15.5600,0.5189,4.0889
15.5800,0.5194,4.0938
15.6000,0.5199,4.0972
15.6200,0.5205,4.1004
15.6400,0.5212,4.1047
15.6600,0.5220,4.1106
15.6800,0.5227,4.1181
15.7000,0.5235,4.1259
15.7200,0.5241,4.1328
15.7400,0.5247,4.1382
15.7600,0.5252,4.1420
15.7800,0.5259,4.1458
15.8000,0.5267,4.1510
15.8200,0.5275,4.1581
15.8400,0.5282,4.1656
15.8600,0.5289,4.1723
15.8800,0.5294,4.1779
15.9000,0.5299,4.1821
15.9200,0.5305,4.1858
15.9400,0.5312,4.1899
15.9600,0.5320,4.1954
15.9800,0.5328,4.2024
16.0000,0.5336,4.2101
16.0200,0.5343,4.2175
16.0400,0.5347,4.2234
16.0600,0.5353,4.2275
16.0800,0.5359,4.2311
16.1000,0.5367,4.2357
16.1200,0.5375,4.2422
16.1400,0.5382,4.2497
16.1600,0.5389,4.2567
16.1800,0.5395,4.2627
16.2000,0.5400,4.2674
16.2200,0.5405,4.2714
16.2400,0.5412,4.2754
16.2600,0.5420,4.2804
16.2800,0.5428,4.2875
16.3000,0.5436,4.2957
16.3200,0.5443,4.3034
16.3400,0.5449,4.3094
16.3600,0.5454,4.3137
16.3800,0.5459,4.3173
16.4000,0.5466,4.3211
16.4200,0.5474,4.3267
16.4400,0.5482,4.3340
16.4600,0.5489,4.3414
16.4800,0.5495,4.3480
16.5000,0.5501,4.3531
16.5200,0.5506,4.3572
16.5400,0.5512,4.3610
16.5600,0.5519,4.3657
16.5800,0.5529,4.3725
16.6000,0.5537,4.3807
16.6200,0.5543,4.3885
16.6400,0.5548,4.3945
16.6600,0.5553,4.3988
16.6800,0.5559,4.4018
16.7000,0.5566,4.4052
16.7200,0.5574,4.4107
16.7400,0.5582,4.4183
16.7600,0.5589,4.4263
16.7800,0.5596,4.4334
16.8000,0.5601,4.4391
16.8200,0.5606,4.4432
16.8400,0.5612,4.4468
16.8600,0.5619,4.4509
16.8800,0.5628,4.4566
16.9000,0.5636,4.4641
16.9200,0.5642,4.4717
16.9400,0.5649,4.4781
16.9600,0.5653,4.4830
16.9800,0.5658,4.4868
17.0000,0.5665,4.4903
17.0200,0.5672,4.4950
17.0400,0.5681,4.5018
17.0600,0.5689,4.5096
17.0800,0.5696,4.5171
17.1000,0.5702,4.5233
17.1200,0.5707,4.5280
17.1400,0.5713,4.5318
17.1600,0.5719,4.5355
17.1800,0.5726,4.5401
17.2000,0.5735,4.5468
17.2200,0.5742,4.5547
17.2400,0.5748,4.5619
17.2600,0.5754,4.5676
17.2800,0.5759,4.5718
17.3000,0.5765,4.5754
17.3200,0.5772,4.5797
17.3400,0.5780,4.5857
17.3600,0.5789,4.5932
17.3800,0.5796,4.6012
17.4000,0.5803,4.6081
17.4200,0.5808,4.6133
17.4400,0.5812,4.6169
17.4600,0.5818,4.6200
17.4800,0.5826,4.6243
17.5000,0.5834,4.6305
17.5200,0.5842,4.6380
17.5400,0.5849,4.6454
17.5600,0.5855,4.6517
17.5800,0.5860,4.6566
17.6000,0.5866,4.6602
17.6200,0.5872,4.6640
17.6400,0.5881,4.6698
17.6600,0.5889,4.6773
17.6800,0.5897,4.6854
17.7000,0.5902,4.6924
17.7200,0.5908,4.6975
17.7400,0.5913,4.7012
17.7600,0.5919,4.7045
17.7800,0.5926,4.7084
17.8000,0.5934,4.7141
17.8200,0.5942,4.7215
17.8400,0.5949,4.7292
17.8600,0.5956,4.7360
17.8800,0.5961,4.7415
17.9000,0.5966,4.7455
17.9200,0.5973,4.7491
17.9400,0.5981,4.7539
17.9600,0.5989,4.7610
17.9800,0.5996,4.7686
18.0000,0.6003,4.7751
18.0200,0.6008,4.7803
18.0400,0.6013,4.7843
18.0600,0.6019,4.7879
18.0800,0.6025,4.7919
18.1000,0.6033,4.7974
18.1200,0.6041,4.8045
18.1400,0.6049,4.8124
18.1600,0.6056,4.8197
18.1800,0.6062,4.8255
18.2000,0.6067,4.8296
18.2200,0.6072,4.8330
18.2400,0.6080,4.8371
18.2600,0.6087,4.8428
18.2800,0.6095,4.8496
18.3000,0.6102,4.8566
18.3200,0.6108,4.8629
18.3400,0.6114,4.8680
18.3600,0.6119,4.8721
18.3800,0.6125,4.8758
18.4000,0.6132,4.8804
18.4200,0.6141,4.8868
18.4400,0.6148,4.8942
18.4600,0.6156,4.9016
18.4800,0.6162,4.9079
18.5000,0.6167,4.9125
18.5200,0.6172,4.9160
18.5400,0.6179,4.9195
18.5600,0.6186,4.9244
18.5800,0.6194,4.9312
18.6000,0.6201,4.9386
18.6200,0.6208,4.9454
18.6400,0.6214,4.9511
18.6600,0.6219,4.9554
18.6800,0.6226,4.9589
18.7000,0.6233,4.9632
18.7200,0.6241,4.9692
18.7400,0.6249,4.9767
18.7600,0.6256,4.9842
18.7800,0.6262,4.9905
18.8000,0.6267,4.9950
18.8200,0.6273,4.9985
18.8400,0.6279,5.0021
18.8600,0.6287,5.0070
18.8800,0.6295,5.0137
18.9000,0.6302,5.0213
18.9200,0.6309,5.0283
18.9400,0.6315,5.0340
18.9600,0.6320,5.0386
18.9800,0.6326,5.0425
19.0000,0.6333,5.0465
19.0200,0.6341,5.0522
19.0400,0.6349,5.0592
19.0600,0.6356,5.0662
19.0800,0.6362,5.0723
19.1000,0.6367,5.0771
19.1200,0.6373,5.0808
19.1400,0.6379,5.0843
19.1600,0.6386,5.0887
19.1800,0.6395,5.0953
19.2000,0.6402,5.1031
19.2200,0.6409,5.1105
19.2400,0.6416,5.1166
19.2600,0.6421,5.1213
19.2800,0.6426,5.1250
19.3000,0.6433,5.1285
19.3200,0.6440,5.1333
19.3400,0.6448,5.1395
19.3600,0.6455,5.1466
19.3800,0.6462,5.1533
19.4000,0.6468,5.1590
19.4200,0.6473,5.1632
19.4400,0.6478,5.1667
19.4600,0.6486,5.1708
19.4800,0.6494,5.1769
19.5000,0.6502,5.1848
19.5200,0.6510,5.1925
19.5400,0.6516,5.1988
19.5600,0.6521,5.2034
19.5800,0.6526,5.2066
19.6000,0.6531,5.2094
19.6200,0.6539,5.2133
19.6400,0.6547,5.2193
19.6600,0.6554,5.2266
19.6800,0.6561,5.2339
19.7000,0.6568,5.2399
19.7200,0.6573,5.2444
19.7400,0.6579,5.2482
19.7600,0.6586,5.2520
19.7800,0.6594,5.2572
19.8000,0.6602,5.2645
19.8200,0.6610,5.2722
19.8400,0.6616,5.2786
19.8600,0.6621,5.2833
19.8800,0.6626,5.2866
19.9000,0.6632,5.2897
19.9200,0.6639,5.2935
19.9400,0.6647,5.2990
19.9600,0.6655,5.3065
19.9800,0.6662,5.3144
20.0000,0.6669,5.3214
20.0200,0.6674,5.3266
20.0400,0.6679,5.3300
20.0600,0.6686,5.3332
20.0800,0.6694,5.3378
20.1000,0.6702,5.3443
20.1200,0.6709,5.3517
20.1400,0.6716,5.3583
20.1600,0.6721,5.3635
20.1800,0.6726,5.3675
20.2000,0.6732,5.3709
20.2200,0.6739,5.3746
20.2400,0.6747,5.3798
20.2600,0.6755,5.3868
20.2800,0.6763,5.3945
20.3000,0.6770,5.4016
20.3200,0.6775,5.4071
20.3400,0.6780,5.4109
20.3600,0.6786,5.4138
20.3800,0.6793,5.4176
20.4000,0.6801,5.4235
20.4200,0.6809,5.4307
20.4400,0.6816,5.4376
20.4600,0.6822,5.4435
20.4800,0.6827,5.4481
20.5000,0.6832,5.4516
20.5200,0.6839,5.4548
20.5400,0.6846,5.4592
20.5600,0.6854,5.4656
20.5800,0.6862,5.4732
20.6000,0.6870,5.4805
20.6200,0.6875,5.4868
20.6400,0.6880,5.4911
20.6600,0.6886,5.4939
20.6800,0.6892,5.4968
20.7000,0.6901,5.5016
20.7200,0.6909,5.5085
20.7400,0.6916,5.5159
20.7600,0.6922,5.5225
20.7800,0.6928,5.5274
20.8000,0.6933,5.5311
20.8200,0.6939,5.5344
20.8400,0.6946,5.5380
20.8600,0.6954,5.5435
20.8800,0.6962,5.5507
20.9000,0.6970,5.5583
20.9200,0.6976,5.5648
20.9400,0.6980,5.5694
20.9600,0.6985,5.5724
20.9800,0.6992,5.5751
21.0000,0.6999,5.5791
21.0200,0.7008,5.5854
21.0400,0.7015,5.5928
21.0600,0.7022,5.5999
21.0800,0.7028,5.6056
21.1000,0.7033,5.6097
21.1200,0.7039,5.6130
21.1400,0.7046,5.6164
21.1600,0.7054,5.6216
21.1800,0.7062,5.6284
21.2000,0.7069,5.6356
21.2200,0.7075,5.6417
21.2400,0.7081,5.6467
21.2600,0.7085,5.6503
21.2800,0.7091,5.6532
21.3000,0.7099,5.6566
21.3200,0.7107,5.6622
21.3400,0.7115,5.6697
21.3600,0.7123,5.6772
21.3800,0.7129,5.6834
21.4000,0.7134,5.6882
21.4200,0.7140,5.6915
21.4400,0.7146,5.6945
21.4600,0.7153,5.6985
21.4800,0.7161,5.7040
21.5000,0.7168,5.7106
21.5200,0.7175,5.7174
21.5400,0.7182,5.7234
21.5600,0.7187,5.7280
21.5800,0.7192,5.7313
21.6000,0.7199,5.7345
21.6200,0.7207,5.7393
21.6400,0.7216,5.7462
21.6600,0.7224,5.7537
21.6800,0.7230,5.7603
21.7000,0.7235,5.7653
21.7200,0.7240,5.7683
21.7400,0.7246,5.7707
21.7600,0.7252,5.7740
21.7800,0.7260,5.7788
21.8000,0.7268,5.7855
21.8200,0.7276,5.7927
21.8400,0.7282,5.7994
21.8600,0.7287,5.8046
21.8800,0.7293,5.8082
21.9000,0.7299,5.8111
21.9200,0.7307,5.8154
21.9400,0.7316,5.8216
21.9600,0.7323,5.8287
21.9800,0.7330,5.8352
22.0000,0.7335,5.8401
22.0200,0.7340,5.8436
22.0400,0.7346,5.8461
22.0600,0.7352,5.8491
22.0800,0.7360,5.8536
22.1000,0.7368,5.8600
22.1200,0.7376,5.8673
22.1400,0.7383,5.8742
22.1600,0.7388,5.8796
22.1800,0.7393,5.8830
22.2000,0.7399,5.8859
22.2200,0.7407,5.8895
22.2400,0.7415,5.8951
22.2600,0.7422,5.9018
22.2800,0.7429,5.9082
22.3000,0.7435,5.9135
22.3200,0.7440,5.9173
22.3400,0.7445,5.9201
22.3600,0.7451,5.9229
22.3800,0.7459,5.9265
22.4000,0.7467,5.9323
22.4200,0.7475,5.9395
22.4400,0.7482,5.9468
22.4600,0.7488,5.9528
22.4800,0.7493,5.9568
22.5000,0.7499,5.9593
22.5200,0.7506,5.9620
22.5400,0.7514,5.9667
22.5600,0.7521,5.9730
22.5800,0.7528,5.9796
22.6000,0.7535,5.9854
22.6200,0.7541,5.9897
22.6400,0.7546,5.9931
22.6600,0.7551,5.9959
22.6800,0.7559,5.9993
22.7000,0.7567,6.0047
22.7200,0.7576,6.0116
22.7400,0.7583,6.0188
22.7600,0.7589,6.0248
22.7800,0.7594,6.0289
22.8000,0.7600,6.0316
22.8200,0.7606,6.0341
22.8400,0.7614,6.0379
22.8600,0.7621,6.0437
22.8800,0.7629,6.0505
22.9000,0.7636,6.0569
22.9200,0.7641,6.0620
22.9400,0.7646,6.0655
22.9600,0.7652,6.0680
22.9800,0.7659,6.0711
23.0000,0.7668,6.0758
23.0200,0.7676,6.0826
23.0400,0.7683,6.0899
23.0600,0.7689,6.0958
23.0800,0.7694,6.0996
23.1000,0.7699,6.1019
23.1200,0.7705,6.1040
23.1400,0.7713,6.1075
23.1600,0.7721,6.1134
23.1800,0.7729,6.1205
23.2000,0.7736,6.1272
23.2200,0.7742,6.1327
23.2400,0.7747,6.1365
23.2600,0.7753,6.1390
23.2800,0.7759,6.1415
23.3000,0.7767,6.1454
23.3200,0.7775,6.1513
23.3400,0.7783,6.1580
23.3600,0.7789,6.1640
23.3800,0.7794,6.1685
23.4000,0.7799,6.1713
23.4200,0.7805,6.1733
23.4400,0.7812,6.1761
23.4600,0.7821,6.1810
23.4800,0.7829,6.1878
23.5000,0.7836,6.1950
23.5200,0.7843,6.2008
23.5400,0.7848,6.2049
23.5600,0.7854,6.2073
23.5800,0.7859,6.2095
23.6000,0.7866,6.2125
23.6200,0.7874,6.2173
23.6400,0.7882,6.2237
23.6600,0.7888,6.2297
23.6800,0.7894,6.2344
23.7000,0.7900,6.2381
23.7200,0.7905,6.2408
23.7400,0.7912,6.2433
23.7600,0.7919,6.2473
23.7800,0.7928,6.2532
23.8000,0.7936,6.2600
23.8200,0.7942,6.2664
23.8400,0.7948,6.2711
23.8600,0.7953,6.2739
23.8800,0.7959,6.2760
23.9000,0.7966,6.2781
23.9200,0.7973,6.2819
23.9400,0.7981,6.2876
23.9600,0.7989,6.2942
23.9800,0.7995,6.2999
24.0000,0.8000,6.3042
24.0200,0.8006,6.3071
24.0400,0.8012,6.3093
24.0600,0.8020,6.3125
24.0800,0.8028,6.3178
24.1000,0.8036,6.3244
24.1200,0.8043,6.3308
24.1400,0.8049,6.3354
24.1600,0.8053,6.3381
24.1800,0.8059,6.3400
24.2000,0.8065,6.3420
24.2200,0.8073,6.3455
24.2400,0.8081,6.3508
24.2600,0.8089,6.3572
24.2800,0.8096,6.3632
24.3000,0.8101,6.3680
24.3200,0.8107,6.3711
24.3400,0.8113,6.3731
24.3600,0.8120,6.3758
24.3800,0.8128,6.3806
24.4000,0.8136,6.3867
24.4200,0.8142,6.3923
24.4400,0.8149,6.3967
24.4600,0.8154,6.3999
24.4800,0.8159,6.4019
24.5000,0.8165,6.4039
24.5200,0.8173,6.4069
24.5400,0.8181,6.4118
24.5600,0.8189,6.4183
24.5800,0.8196,6.4244
24.6000,0.8202,6.4294
24.6200,0.8208,6.4325
24.6400,0.8213,6.4344
24.6600,0.8219,6.4367
24.6800,0.8227,6.4402
24.7000,0.8235,6.4453
24.7200,0.8242,6.4506
24.7400,0.8249,6.4555
24.7600,0.8254,6.4595
24.7800,0.8260,6.4622
24.8000,0.8265,6.4640
24.8200,0.8272,6.4661
24.8400,0.8281,6.4702
24.8600,0.8289,6.4758
24.8800,0.8296,6.4819
24.9000,0.8302,6.4875
24.9200,0.8308,6.4912
24.9400,0.8313,6.4929
24.9600,0.8319,6.4938
24.9800,0.8326,6.4961
25.0000,0.8334,6.5004
25.0200,0.8342,6.5059
25.0400,0.8349,6.5112
25.0600,0.8355,6.5155
25.0800,0.8360,6.5184
25.1000,0.8366,6.5203
25.1200,0.8372,6.5222
25.1400,0.8380,6.5255
25.1600,0.8388,6.5303
25.1800,0.8396,6.5359
25.2000,0.8402,6.5412
25.2200,0.8407,6.5448
25.2400,0.8413,6.5467
25.2600,0.8419,6.5480
25.2800,0.8426,6.5500
25.3000,0.8434,6.5536
25.3200,0.8442,6.5589
25.3400,0.8449,6.5646
25.3600,0.8455,6.5692
25.3800,0.8461,6.5723
25.4000,0.8466,6.5743
25.4200,0.8473,6.5757
25.4400,0.8480,6.5784
25.4600,0.8488,6.5828
25.4800,0.8496,6.5879
25.5000,0.8502,6.5926
25.5200,0.8508,6.5962
25.5400,0.8513,6.5982
25.5600,0.8519,6.5993
25.5800,0.8526,6.6009
25.6000,0.8534,6.6040
25.6200,0.8542,6.6090
25.6400,0.8549,6.6143
25.6600,0.8556,6.6188
25.6800,0.8561,6.6221
25.7000,0.8567,6.6239
25.7200,0.8572,6.6250
25.7400,0.8580,6.6268
25.7600,0.8588,6.6304
25.7800,0.8596,6.6350
25.8000,0.8602,6.6398
25.8200,0.8608,6.6436
25.8400,0.8614,6.6458
25.8600,0.8619,6.6469
25.8800,0.8626,6.6481
25.9000,0.8634,6.6508
25.9200,0.8642,6.6552
25.9400,0.8650,6.6603
25.9600,0.8657,6.6648
25.9800,0.8662,6.6681
26.0000,0.8667,6.6695
26.0200,0.8672,6.6698
26.0400,0.8679,6.6703
26.0600,0.8687,6.6728
26.0800,0.8695,6.6770
26.1000,0.8702,6.6821
26.1200,0.8709,6.6864
26.1400,0.8714,6.6891
26.1600,0.8719,6.6904
26.1800,0.8725,6.6910
26.2000,0.8733,6.6929
26.2200,0.8742,6.6969
26.2400,0.8750,6.7020
26.2600,0.8756,6.7065
26.2800,0.8762,6.7093
26.3000,0.8766,6.7105
26.3200,0.8772,6.7106
26.3400,0.8778,6.7110
26.3600,0.8786,6.7127
26.3800,0.8794,6.7165
26.4000,0.8802,6.7213
26.4200,0.8809,6.7255
26.4400,0.8814,6.7287
26.4600,0.8819,6.7301
26.4800,0.8825,6.7306
26.5000,0.8833,6.7313
26.5200,0.8841,6.7341
26.5400,0.8849,6.7387
26.5600,0.8856,6.7431
26.5800,0.8862,6.7460
26.6000,0.8867,6.7474
26.6200,0.8872,6.7479
26.6400,0.8878,6.7483
26.6600,0.8886,6.7497
26.6800,0.8894,6.7529
26.7000,0.8902,6.7573
26.7200,0.8909,6.7617
26.7400,0.8915,6.7649
26.7600,0.8921,6.7666
26.7800,0.8926,6.7668
26.8000,0.8933,6.7666
26.8200,0.8941,6.7683
26.8400,0.8949,6.7722
26.8600,0.8956,6.7763
26.8800,0.8962,6.7795
26.9000,0.8968,6.7814
26.9200,0.8973,6.7819
26.9400,0.8979,6.7821
26.9600,0.8986,6.7828
26.9800,0.8994,6.7852
27.0000,0.9002,6.7891
27.0200,0.9010,6.7934
27.0400,0.9017,6.7972
27.0600,0.9021,6.7993
27.0800,0.9026,6.7993
27.1000,0.9033,6.7984
27.1200,0.9040,6.7992
27.1400,0.9048,6.8021
27.1600,0.9056,6.8062
27.1800,0.9063,6.8099
27.2000,0.9069,6.8121
27.2200,0.9074,6.8129
27.2400,0.9079,6.8129
27.2600,0.9086,6.8129
27.2800,0.9094,6.8144
27.3000,0.9102,6.8178
27.3200,0.9110,6.8218
27.3400,0.9116,6.8253
27.3600,0.9122,6.8272
27.3800,0.9126,6.8272
27.4000,0.9132,6.8262
27.4200,0.9139,6.8262
27.4400,0.9147,6.8284
27.4600,0.9155,6.8323
27.4800,0.9163,6.8364
27.5000,0.9169,6.8395
27.5200,0.9174,6.8407
27.5400,0.9180,6.8407
27.5600,0.9186,6.8401
27.5800,0.9193,6.8406
27.6000,0.9201,6.8430
27.6200,0.9209,6.8468
27.6400,0.9215,6.8502
27.6600,0.9221,6.8521
27.6800,0.9226,6.8525
27.7000,0.9232,6.8520
27.7200,0.9238,6.8517
27.7400,0.9246,6.8528
27.7600,0.9254,6.8561
27.7800,0.9262,6.8603
27.8000,0.9269,6.8639
27.8200,0.9275,6.8659
27.8400,0.9280,6.8662
27.8600,0.9286,6.8656
27.8800,0.9292,6.8652
27.9000,0.9300,6.8665
27.9200,0.9307,6.8695
27.9400,0.9315,6.8728
27.9600,0.9321,6.8756
27.9800,0.9327,6.8773
28.0000,0.9332,6.8774
28.0200,0.9339,6.8769
28.0400,0.9347,6.8775
28.0600,0.9355,6.8801
28.0800,0.9363,6.8840
28.1000,0.9370,6.8875
28.1200,0.9376,6.8895
28.1400,0.9380,6.8898
28.1600,0.9386,6.8887
28.1800,0.9392,6.8877
28.2000,0.9400,6.8882
28.2200,0.9408,6.8907
28.2400,0.9415,6.8942
28.2600,0.9422,6.8977
28.2800,0.9428,6.8999
28.3000,0.9433,6.9003
28.3200,0.9439,6.8995
28.3400,0.9447,6.8993
28.3600,0.9455,6.9013
28.3800,0.9463,6.9049
28.4000,0.9470,6.9083
28.4200,0.9476,6.9106
28.4400,0.9481,6.9110
28.4600,0.9486,6.9098
28.4800,0.9492,6.9087
28.5000,0.9499,6.9086
28.5200,0.9507,6.9106
28.5400,0.9515,6.9142
28.5600,0.9523,6.9179
28.5800,0.9529,6.9203
28.6000,0.9534,6.9209
28.6200,0.9539,6.9200
28.6400,0.9546,6.9194
28.6600,0.9554,6.9208
28.6800,0.9562,6.9239
28.7000,0.9569,6.9272
28.7200,0.9576,6.9295
28.7400,0.9581,6.9303
28.7600,0.9586,6.9298
28.7800,0.9592,6.9290
28.8000,0.9598,6.9285
28.8200,0.9607,6.9299
28.8400,0.9615,6.9333
28.8600,0.9623,6.9372
28.8800,0.9629,6.9404
28.9000,0.9634,6.9417
28.9200,0.9639,6.9408
28.9400,0.9646,6.9396
28.9600,0.9654,6.9402
28.9800,0.9661,6.9424
29.0000,0.9669,6.9455
29.0200,0.9675,6.9481
29.0400,0.9681,6.9495
29.0600,0.9686,6.9494
29.0800,0.9692,6.9485
29.1000,0.9698,6.9481
29.1200,0.9706,6.9491
29.1400,0.9715,6.9520
29.1600,0.9723,6.9560
29.1800,0.9729,6.9592
29.2000,0.9734,6.9609
29.2200,0.9740,6.9607
29.2400,0.9745,6.9595
29.2600,0.9753,6.9589
29.2800,0.9761,6.9603
29.3000,0.9768,6.9632
29.3200,0.9775,6.9665
29.3400,0.9782,6.9688
29.3600,0.9787,6.9694
29.3800,0.9792,6.9686
29.4000,0.9799,6.9677
29.4200,0.9806,6.9681
29.4400,0.9815,6.9705
29.4600,0.9823,6.9746
29.4800,0.9829,6.9781
29.5000,0.9835,6.9796
29.5200,0.9839,6.9792
29.5400,0.9845,6.9775
29.5600,0.9852,6.9768
29.5800,0.9860,6.9780
29.6000,0.9868,6.9811
29.6200,0.9876,6.9848
29.6400,0.9882,6.9876
29.6600,0.9888,6.9887
29.6800,0.9894,6.9883
29.7000,0.9899,6.9871
29.7200,0.9907,6.9870
29.7400,0.9915,6.9890
29.7600,0.9922,6.9921
29.7800,0.9929,6.9951
29.8000,0.9935,6.9967
29.8200,0.9940,6.9966
29.8400,0.9946,6.9955
29.8600,0.9952,6.9943
29.8800,0.9960,6.9949
29.9000,0.9969,6.9978
29.9200,0.9976,7.0017
29.9400,0.9983,7.0049
29.9600,0.9989,7.0062
29.9800,0.9994,7.0061
30.0000,1.0000,7.0051
30.0200,1.0006,7.0042
30.0400,1.0014,7.0049
30.0600,1.0022,7.0075
30.0800,1.0029,7.0109
30.1000,1.0036,7.0131
30.1200,1.0041,7.0137
30.1400,1.0046,7.0132
30.1600,1.0052,7.0123
30.1800,1.0060,7.0124
30.2000,1.0068,7.0142
30.2200,1.0076,7.0174
30.2400,1.0083,7.0209
30.2600,1.0089,7.0232
30.2800,1.0094,7.0235
30.3000,1.0099,7.0222
30.3200,1.0105,7.0207
30.3400,1.0113,7.0205
30.3600,1.0121,7.0227
30.3800,1.0128,7.0259
30.4000,1.0135,7.0288
30.4200,1.0141,7.0304
30.4400,1.0146,7.0305
30.4600,1.0152,7.0297
30.4800,1.0159,7.0292
30.5000,1.0167,7.0304
30.5200,1.0175,7.0332
30.5400,1.0182,7.0366
30.5600,1.0189,7.0393
30.5800,1.0194,7.0400
30.6000,1.0199,7.0392
30.6200,1.0205,7.0380
30.6400,1.0212,7.0374
30.6600,1.0220,7.0388
30.6800,1.0228,7.0420
30.7000,1.0235,7.0455
30.7200,1.0242,7.0477
30.7400,1.0247,7.0486
30.7600,1.0252,7.0478
30.7800,1.0259,7.0470
30.8000,1.0267,7.0478
30.8200,1.0276,7.0506
30.8400,1.0282,7.0538
30.8600,1.0289,7.0560
30.8800,1.0294,7.0567
30.9000,1.0300,7.0561
30.9200,1.0305,7.0548
30.9400,1.0312,7.0539
30.9600,1.0320,7.0552
30.9800,1.0329,7.0582
31.0000,1.0336,7.0618
31.0200,1.0342,7.0647
31.0400,1.0348,7.0659
31.0600,1.0354,7.0655
31.0800,1.0360,7.0644
31.1000,1.0367,7.0644
31.1200,1.0375,7.0658
31.1400,1.0382,7.0681
31.1600,1.0389,7.0705
31.1800,1.0395,7.0723
31.2000,1.0400,7.0727
31.2200,1.0406,7.0718
31.2400,1.0412,7.0707
31.2600,1.0420,7.0710
31.2800,1.0428,7.0733
31.3000,1.0436,7.0768
31.3200,1.0443,7.0800
31.3400,1.0449,7.0817
31.3600,1.0454,7.0817
31.3800,1.0459,7.0803
31.4000,1.0466,7.0791
31.4200,1.0474,7.0797
31.4400,1.0482,7.0823
31.4600,1.0489,7.0855
31.4800,1.0495,7.0876
31.5000,1.0501,7.0884
31.5200,1.0506,7.0878
31.5400,1.0512,7.0867
31.5600,1.0520,7.0867
31.5800,1.0528,7.0886
31.6000,1.0536,7.0917
31.6200,1.0543,7.0946
31.6400,1.0548,7.0962
31.6600,1.0554,7.0960
31.6800,1.0558,7.0948
31.7000,1.0565,7.0937
31.7200,1.0573,7.0941
31.7400,1.0581,7.0965
31.7600,1.0588,7.0997
31.7800,1.0595,7.1023
31.8000,1.0601,7.1036
31.8200,1.0607,7.1035
31.8400,1.0612,7.1026
31.8600,1.0619,7.1020
31.8800,1.0627,7.1034
31.9000,1.0635,7.1061
31.9200,1.0642,7.1088
31.9400,1.0648,7.1109
31.9600,1.0653,7.1114
31.9800,1.0659,7.1108
32.0000,1.0664,7.1099
32.0200,1.0672,7.1097
32.0400,1.0681,7.1115
32.0600,1.0689,7.1150
32.0800,1.0696,7.1183
32.1000,1.0702,7.1202
32.1200,1.0707,7.1203
32.1400,1.0713,7.1191
32.1600,1.0720,7.1182
32.1800,1.0727,7.1189
32.2000,1.0735,7.1210
32.2200,1.0742,7.1241
32.2400,1.0749,7.1266
32.2600,1.0754,7.1274
32.2800,1.0759,7.1268
32.3000,1.0765,7.1258
32.3200,1.0773,7.1254
32.3400,1.0781,7.1270
32.3600,1.0789,7.1305
32.3800,1.0797,7.1338
32.4000,1.0803,7.1357
32.4200,1.0807,7.1359
32.4400,1.0813,7.1346
32.4600,1.0819,7.1330
32.4800,1.0826,7.1327
32.5000,1.0834,7.1345
32.5200,1.0842,7.1375
32.5400,1.0849,7.1405
32.5600,1.0855,7.1421
32.5800,1.0860,7.1421
32.6000,1.0866,7.1412
32.6200,1.0873,7.1405
32.6400,1.0881,7.1416
32.6600,1.0890,7.1447
32.6800,1.0897,7.1482
32.7000,1.0903,7.1503
32.7200,1.0908,7.1502
32.7400,1.0913,7.1487
32.7600,1.0918,7.1470
32.7800,1.0926,7.1465
32.8000,1.0934,7.1482
32.8200,1.0942,7.1513
32.8400,1.0949,7.1545
32.8600,1.0955,7.1566
32.8800,1.0961,7.1572
32.9000,1.0966,7.1563
32.9200,1.0973,7.1551
32.9400,1.0981,7.1556
32.9600,1.0989,7.1581
32.9800,1.0996,7.1614
33.0000,1.1002,7.1634
33.0200,1.1008,7.1640
33.0400,1.1013,7.1633
33.0600,1.1019,7.1622
33.0800,1.1025,7.1613
33.1000,1.1033,7.1621
33.1200,1.1041,7.1648
33.1400,1.1049,7.1683
33.1600,1.1056,7.1712
33.1800,1.1061,7.1725
33.2000,1.1066,7.1719
33.2200,1.1073,7.1706
33.2400,1.1080,7.1701
33.2600,1.1088,7.1717
33.2800,1.1095,7.1746
33.3000,1.1102,7.1772
33.3200,1.1108,7.1787
33.3400,1.1113,7.1789
33.3600,1.1119,7.1779
33.3800,1.1125,7.1768
33.4000,1.1133,7.1771
33.4200,1.1141,7.1794
33.4400,1.1149,7.1829
33.4600,1.1156,7.1862
33.4800,1.1162,7.1881
33.5000,1.1167,7.1879
33.5200,1.1172,7.1861
33.5400,1.1179,7.1847
33.5600,1.1187,7.1856
33.5800,1.1195,7.1883
33.6000,1.1202,7.1913
33.6200,1.1209,7.1935
33.6400,1.1214,7.1942
33.6600,1.1220,7.1937
33.6800,1.1225,7.1928
33.7000,1.1233,7.1924
33.7200,1.1241,7.1938
33.7400,1.1249,7.1968
33.7600,1.1256,7.2001
33.7800,1.1262,7.2021
33.8000,1.1267,7.2020
33.8200,1.1272,7.2005
33.8400,1.1279,7.1990
33.8600,1.1287,7.1992
33.8800,1.1295,7.2016
33.9000,1.1302,7.2048
33.9200,1.1309,7.2075
33.9400,1.1315,7.2088
33.9600,1.1320,7.2085
33.9800,1.1326,7.2072
34.0000,1.1333,7.2064
34.0200,1.1341,7.2076
34.0400,1.1349,7.2101
34.0600,1.1356,7.2131
34.0800,1.1362,7.2150
34.1000,1.1367,7.2153
34.1200,1.1373,7.2144
34.1400,1.1379,7.2131
34.1600,1.1386,7.2126
34.1800,1.1394,7.2142
34.2000,1.1402,7.2176
34.2200,1.1410,7.2206
34.2400,1.1416,7.2226
34.2600,1.1421,7.2229
34.2800,1.1426,7.2218
34.3000,1.1432,7.2203
34.3200,1.1440,7.2200
34.3400,1.1448,7.2218
34.3600,1.1455,7.2245
34.3800,1.1462,7.2269
34.4000,1.1468,7.2286
34.4200,1.1473,7.2287
34.4400,1.1479,7.2277
34.4600,1.1486,7.2268
34.4800,1.1494,7.2277
34.5000,1.1502,7.2304
34.5200,1.1510,7.2336
34.5400,1.1516,7.2362
34.5600,1.1521,7.2370
34.5800,1.1526,7.2360
34.6000,1.1532,7.2342
34.6200,1.1539,7.2332
34.6400,1.1546,7.2343
34.6600,1.1554,7.2370
34.6800,1.1562,7.2399
34.7000,1.1568,7.2423
34.7200,1.1574,7.2432
34.7400,1.1579,7.2427
34.7600,1.1586,7.2416
34.7800,1.1594,7.2419
34.8000,1.1602,7.2445
34.8200,1.1610,7.2479
34.8400,1.1616,7.2506
34.8600,1.1621,7.2515
34.8800,1.1627,7.2505
34.9000,1.1632,7.2487
34.9200,1.1638,7.2474
34.9400,1.1647,7.2480
34.9600,1.1655,7.2508
34.9800,1.1662,7.2541
35.0000,1.1669,7.2567
35.0200,1.1674,7.2580
35.0400,1.1680,7.2573
35.0600,1.1686,7.2561
35.0800,1.1694,7.2560
35.1000,1.1702,7.2579
35.1200,1.1710,7.2610
35.1400,1.1716,7.2637
35.1600,1.1722,7.2648
35.1800,1.1727,7.2642
35.2000,1.1732,7.2628
35.2200,1.1739,7.2616
35.2400,1.1746,7.2615
35.2600,1.1755,7.2636
35.2800,1.1763,7.2671
35.3000,1.1770,7.2703
35.3200,1.1775,7.2719
35.3400,1.1780,7.2717
35.3600,1.1786,7.2702
35.3800,1.1793,7.2692
35.4000,1.1801,7.2702
35.4200,1.1809,7.2728
35.4400,1.1816,7.2754
35.4600,1.1822,7.2770
35.4800,1.1827,7.2772
35.5000,1.1832,7.2765
35.5200,1.1838,7.2754
35.5400,1.1846,7.2750
35.5600,1.1854,7.2765
35.5800,1.1862,7.2796
35.6000,1.1870,7.2830
35.6200,1.1876,7.2850
35.6400,1.1881,7.2850
35.6600,1.1886,7.2837
35.6800,1.1892,7.2823
35.7000,1.1900,7.2823
35.7200,1.1908,7.2844
35.7400,1.1915,7.2873
35.7600,1.1922,7.2897
35.7800,1.1928,7.2907
35.8000,1.1932,7.2903
35.8200,1.1938,7.2891
35.8400,1.1945,7.2882
35.8600,1.1954,7.2893
35.8800,1.1962,7.2924
35.9000,1.1969,7.2962
35.9200,1.1975,7.2983
35.9400,1.1980,7.2983
35.9600,1.1985,7.2969
35.9800,1.1991,7.2951
36.0000,1.1999,7.2948
36.0200,1.2007,7.2970
36.0400,1.2016,7.3002
36.0600,1.2022,7.3033
36.0800,1.2028,7.3048
36.1000,1.2033,7.3047
36.1200,1.2039,7.3035
36.1400,1.2046,7.3027
36.1600,1.2054,7.3033
36.1800,1.2062,7.3055
36.2000,1.2069,7.3086
36.2200,1.2076,7.3108
36.2400,1.2081,7.3116
36.2600,1.2086,7.3109
36.2800,1.2092,7.3094
36.3000,1.2100,7.3088
36.3200,1.2108,7.3103
36.3400,1.2116,7.3135
36.3600,1.2123,7.3170
36.3800,1.2129,7.3192
36.4000,1.2134,7.3194
36.4200,1.2140,7.3183
36.4400,1.2146,7.3169
36.4600,1.2153,7.3163
36.4800,1.2162,7.3177
36.5000,1.2169,7.3205
36.5200,1.2176,7.3231
36.5400,1.2182,7.3244
36.5600,1.2186,7.3242
36.5800,1.2192,7.3229
36.6000,1.2199,7.3220
36.6200,1.2207,7.3228
36.6400,1.2215,7.3252
36.6600,1.2223,7.3285
36.6800,1.2230,7.3312
36.7000,1.2235,7.3322
36.7200,1.2240,7.3315
36.7400,1.2245,7.3295
36.7600,1.2252,7.3280
36.7800,1.2260,7.3289
36.8000,1.2268,7.3318
36.8200,1.2275,7.3348
36.8400,1.2282,7.3368
36.8600,1.2287,7.3375
36.8800,1.2292,7.3368
36.9000,1.2299,7.3354
36.9200,1.2307,7.3353
36.9400,1.2315,7.3373
36.9600,1.2323,7.3405
36.9800,1.2329,7.3433
37.0000,1.2335,7.3444
37.0200,1.2340,7.3436
37.0400,1.2346,7.3423
37.0600,1.2352,7.3412
37.0800,1.2359,7.3414
37.1000,1.2367,7.3435
37.1200,1.2375,7.3464
37.1400,1.2382,7.3490
37.1600,1.2388,7.3504
37.1800,1.2393,7.3501
37.2000,1.2399,7.3491
37.2200,1.2407,7.3485
37.2400,1.2415,7.3500
37.2600,1.2422,7.3528
37.2800,1.2429,7.3551
37.3000,1.2434,7.3563
37.3200,1.2440,7.3562
37.3400,1.2445,7.3553
37.3600,1.2452,7.3543
37.3800,1.2459,7.3541
37.4000,1.2468,7.3559
37.4200,1.2476,7.3590
37.4400,1.2483,7.3622
37.4600,1.2489,7.3642
37.4800,1.2494,7.3644
37.5000,1.2500,7.3633
37.5200,1.2507,7.3624
37.5400,1.2514,7.3629
37.5600,1.2522,7.3648
37.5800,1.2529,7.3672
37.6000,1.2535,7.3691
37.6200,1.2541,7.3699
37.6400,1.2546,7.3692
37.6600,1.2552,7.3679
37.6800,1.2559,7.3675
37.7000,1.2567,7.3688
37.7200,1.2575,7.3715
37.7400,1.2583,7.3746
37.7600,1.2589,7.3770
37.7800,1.2594,7.3772
37.8000,1.2599,7.3758
37.8200,1.2606,7.3743
37.8400,1.2613,7.3742
37.8600,1.2621,7.3760
37.8800,1.2629,7.3787
37.9000,1.2636,7.3814
37.9200,1.2642,7.3828
37.9400,1.2647,7.3827
37.9600,1.2652,7.3814
37.9800,1.2659,7.3804
38.0000,1.2668,7.3812
38.0200,1.2676,7.3839
38.0400,1.2683,7.3869
38.0600,1.2689,7.3888
38.0800,1.2694,7.3891
38.1000,1.2700,7.3880
38.1200,1.2706,7.3865
38.1400,1.2713,7.3858
38.1600,1.2721,7.3871
38.1800,1.2729,7.3901
38.2000,1.2736,7.3928
38.2200,1.2742,7.3945
38.2400,1.2747,7.3947
38.2600,1.2753,7.3935
38.2800,1.2760,7.3924
38.3000,1.2767,7.3929
38.3200,1.2775,7.3949
38.3400,1.2782,7.3977
38.3600,1.2789,7.3997
38.3800,1.2794,7.4006
38.4000,1.2799,7.4001
38.4200,1.2805,7.3990
38.4400,1.2812,7.3979
38.4600,1.2820,7.3985
38.4800,1.2828,7.4011
38.5000,1.2836,7.4043
38.5200,1.2842,7.4066
38.5400,1.2847,7.4072
38.5600,1.2853,7.4065
38.5800,1.2859,7.4053
38.6000,1.2866,7.4049
38.6200,1.2874,7.4061
38.6400,1.2882,7.4086
38.6600,1.2889,7.4111
38.6800,1.2895,7.4128
38.7000,1.2899,7.4128
38.7200,1.2905,7.4118
38.7400,1.2912,7.4108
38.7600,1.2920,7.4112
38.7800,1.2928,7.4139
38.8000,1.2936,7.4173
38.8200,1.2943,7.4200
38.8400,1.2949,7.4211
38.8600,1.2953,7.4203
38.8800,1.2959,7.4184
38.9000,1.2966,7.4172
38.9200,1.2973,7.4177
38.9400,1.2981,7.4203
38.9600,1.2989,7.4235
38.9800,1.2995,7.4258
39.0000,1.3001,7.4262
39.0200,1.3006,7.4253
39.0400,1.3012,7.4240
39.0600,1.3021,7.4240
39.0800,1.3029,7.4264
39.1000,1.3037,7.4298
39.1200,1.3043,7.4324
39.1400,1.3048,7.4329
39.1600,1.3053,7.4316
39.1800,1.3059,7.4301
39.2000,1.3066,7.4289
39.2200,1.3074,7.4291
39.2400,1.3082,7.4314
39.2600,1.3089,7.4347
39.2800,1.3096,7.4374
39.3000,1.3101,7.4387
39.3200,1.3107,7.4380
39.3400,1.3113,7.4364
39.3600,1.3121,7.4358
39.3800,1.3129,7.4373
39.4000,1.3136,7.4404
39.4200,1.3143,7.4430
39.4400,1.3149,7.4441
39.4600,1.3153,7.4436
39.4800,1.3159,7.4420
39.5000,1.3165,7.4408
39.5200,1.3173,7.4408
39.5400,1.3181,7.4425
39.5600,1.3189,7.4455
39.5800,1.3196,7.4484
39.6000,1.3202,7.4503
39.6200,1.3207,7.4505
39.6400,1.3213,7.4488
39.6600,1.3219,7.4475
39.6800,1.3227,7.4479
39.7000,1.3235,7.4501
39.7200,1.3242,7.4527
39.7400,1.3248,7.4543
39.7600,1.3254,7.4546
39.7800,1.3259,7.4541
39.8000,1.3265,7.4530
39.8200,1.3272,7.4525
39.8400,1.3280,7.4535
39.8600,1.3288,7.4560
39.8800,1.3296,7.4590
39.9000,1.3303,7.4617
39.9200,1.3308,7.4625
39.9400,1.3312,7.4612
39.9600,1.3319,7.4593
39.9800,1.3326,7.4588
40.0000,1.3334,7.4605
40.0200,1.3341,7.4633
40.0400,1.3348,7.4657
40.0600,1.3354,7.4668
40.0800,1.3360,7.4666
40.1000,1.3365,7.4655
40.1200,1.3372,7.4647
40.1400,1.3380,7.4652
40.1600,1.3389,7.4677
40.1800,1.3397,7.4712
40.2000,1.3403,7.4742
40.2200,1.3408,7.4755
40.2400,1.3413,7.4744
40.2600,1.3419,7.4722
40.2800,1.3426,7.4711
40.3000,1.3434,7.4722
40.3200,1.3442,7.4753
40.3400,1.3449,7.4781
40.3600,1.3455,7.4798
40.3800,1.3460,7.4802
40.4000,1.3466,7.4793
40.4200,1.3473,7.4780
40.4400,1.3481,7.4783
40.4600,1.3489,7.4804
40.4800,1.3496,7.4834
40.5000,1.3503,7.4857
40.5200,1.3508,7.4863
40.5400,1.3513,7.4855
40.5600,1.3519,7.4841
40.5800,1.3526,7.4830
40.6000,1.3534,7.4837
40.6200,1.3542,7.4863
40.6400,1.3549,7.4896
40.6600,1.3556,7.4919
40.6800,1.3562,7.4932
40.7000,1.3567,7.4926
40.7200,1.3573,7.4912
40.7400,1.3580,7.4901
40.7600,1.3587,7.4907
40.7800,1.3595,7.4927
40.8000,1.3602,7.4951
40.8200,1.3608,7.4968
40.8400,1.3614,7.4973
40.8600,1.3619,7.4964
40.8800,1.3625,7.4950
40.9000,1.3633,7.4949
40.9200,1.3641,7.4968
40.9400,1.3649,7.5000
40.9600,1.3656,7.5030
40.9800,1.3662,7.5047
41.0000,1.3667,7.5045
41.0200,1.3672,7.5027
41.0400,1.3678,7.5009
41.0600,1.3686,7.5005
41.0800,1.3694,7.5020
41.1000,1.3701,7.5049
41.1200,1.3708,7.5074
41.1400,1.3714,7.5087
41.1600,1.3719,7.5083
41.1800,1.3725,7.5071
41.2000,1.3733,7.5063
41.2200,1.3741,7.5075
41.2400,1.3749,7.5106
41.2600,1.3757,7.5137
41.2800,1.3762,7.5156
41.3000,1.3767,7.5154
41.3200,1.3772,7.5135
41.3400,1.3778,7.5116
41.3600,1.3786,7.5110
41.3800,1.3794,7.5127
41.4000,1.3802,7.5158
41.4200,1.3809,7.5186
41.4400,1.3814,7.5203
41.4600,1.3820,7.5203
41.4800,1.3826,7.5192
41.5000,1.3833,7.5184
41.5200,1.3841,7.5193
41.5400,1.3849,7.5220
41.5600,1.3856,7.5248
41.5800,1.3862,7.5263
41.6000,1.3867,7.5260
41.6200,1.3873,7.5247
41.6400,1.3878,7.5234
41.6600,1.3885,7.5226
41.6800,1.3894,7.5236
41.7000,1.3902,7.5263
41.7200,1.3909,7.5295
41.7400,1.3916,7.5319
41.7600,1.3921,7.5327
41.7800,1.3926,7.5315
41.8000,1.3933,7.5301
41.8200,1.3941,7.5304
41.8400,1.3949,7.5324
41.8600,1.3956,7.5348
41.8800,1.3962,7.5366
41.9000,1.3968,7.5372
41.9200,1.3973,7.5365
41.9400,1.3978,7.5351
41.9600,1.3985,7.5340
41.9800,1.3994,7.5346
42.0000,1.4002,7.5373
42.0200,1.4010,7.5408
42.0400,1.4016,7.5434
42.0600,1.4022,7.5442
42.0800,1.4027,7.5432
42.1000,1.4032,7.5414
42.1200,1.4039,7.5403
42.1400,1.4047,7.5412
42.1600,1.4056,7.5440
42.1800,1.4062,7.5468
42.2000,1.4068,7.5483
42.2200,1.4074,7.5482
42.2400,1.4079,7.5469
42.2600,1.4086,7.5454
42.2800,1.4094,7.5453
42.3000,1.4102,7.5477
42.3200,1.4110,7.5515
42.3400,1.4116,7.5542
42.3600,1.4121,7.5548
42.3800,1.4126,7.5535
42.4000,1.4132,7.5515
42.4200,1.4139,7.5501
42.4400,1.4147,7.5509
42.4600,1.4155,7.5536
42.4800,1.4162,7.5568
42.5000,1.4169,7.5590
42.5200,1.4174,7.5597
42.5400,1.4180,7.5590
42.5600,1.4186,7.5574
42.5800,1.4193,7.5569
42.6000,1.4201,7.5583
42.6200,1.4209,7.5610
42.6400,1.4215,7.5635
42.6600,1.4221,7.5646
42.6800,1.4226,7.5642
42.7000,1.4232,7.5626
42.7200,1.4238,7.5614
42.7400,1.4246,7.5618
42.7600,1.4255,7.5644
42.7800,1.4263,7.5679
42.8000,1.4269,7.5708
42.8200,1.4275,7.5718
42.8400,1.4281,7.5711
42.8600,1.4286,7.5696
42.8800,1.4293,7.5685
42.9000,1.4301,7.5693
42.9200,1.4309,7.5717
42.9400,1.4315,7.5744
42.9600,1.4322,7.5760
42.9800,1.4327,7.5761
43.0000,1.4332,7.5749
43.0200,1.4338,7.5734
43.0400,1.4346,7.5731
43.0600,1.4355,7.5752
43.0800,1.4364,7.5787
43.1000,1.4371,7.5820
43.1200,1.4376,7.5837
43.1400,1.4381,7.5834
43.1600,1.4386,7.5814
43.1800,1.4392,7.5792
43.2000,1.4400,7.5789
43.2200,1.4408,7.5809
43.2400,1.4416,7.5838
43.2600,1.4422,7.5863
43.2800,1.4428,7.5874
43.3000,1.4433,7.5869
43.3200,1.4439,7.5853
43.3400,1.4447,7.5843
43.3600,1.4455,7.5856
43.3800,1.4463,7.5886
43.4000,1.4470,7.5917
43.4200,1.4475,7.5932
43.4400,1.4480,7.5925
43.4600,1.4486,7.5910
43.4800,1.4492,7.5895
43.5000,1.4499,7.5890
43.5200,1.4507,7.5902
43.5400,1.4515,7.5929
43.5600,1.4522,7.5959
43.5800,1.4529,7.5978
43.6000,1.4534,7.5980
43.6200,1.4539,7.5968
43.6400,1.4547,7.5957
43.6600,1.4555,7.5963
43.6800,1.4562,7.5985
43.7000,1.4569,7.6009
43.7200,1.4575,7.6021
43.7400,1.4581,7.6022
43.7600,1.4585,7.6012
43.7800,1.4591,7.5997
43.8000,1.4598,7.5990
43.8200,1.4606,7.5999
43.8400,1.4615,7.6026
43.8600,1.4622,7.6058
43.8800,1.4629,7.6082
43.9000,1.4634,7.6092
43.9200,1.4640,7.6084
43.9400,1.4646,7.6069
43.9600,1.4653,7.6060
43.9800,1.4661,7.6073
44.0000,1.4668,7.6096
44.0200,1.4675,7.6118
44.0400,1.4681,7.6131
44.0600,1.4686,7.6131
44.0800,1.4692,7.6120
44.1000,1.4698,7.6108
44.1200,1.4706,7.6112
44.1400,1.4715,7.6132
44.1600,1.4723,7.6163
44.1800,1.4729,7.6193
44.2000,1.4735,7.6205
44.2200,1.4740,7.6197
44.2400,1.4746,7.6179
44.2600,1.4752,7.6166
44.2800,1.4761,7.6170
44.3000,1.4769,7.6194
44.3200,1.4776,7.6224
44.3400,1.4782,7.6246
44.3600,1.4787,7.6250
44.3800,1.4793,7.6241
44.4000,1.4800,7.6229
44.4200,1.4807,7.6226
44.4400,1.4816,7.6243
44.4600,1.4823,7.6272
44.4800,1.4830,7.6297
44.5000,1.4835,7.6305
44.5200,1.4840,7.6297
44.5400,1.4846,7.6280
44.5600,1.4853,7.6265
44.5800,1.4861,7.6269
44.6000,1.4869,7.6293
44.6200,1.4876,7.6324
44.6400,1.4883,7.6346
44.6600,1.4889,7.6353
44.6800,1.4893,7.6346
44.7000,1.4900,7.6331
44.7200,1.4907,7.6326
44.7400,1.4915,7.6338
44.7600,1.4922,7.6359
44.7800,1.4929,7.6382
44.8000,1.4935,7.6394
44.8200,1.4941,7.6391
44.8400,1.4946,7.6379
44.8600,1.4952,7.6366
44.8800,1.4960,7.6364
44.9000,1.4968,7.6384
44.9200,1.4976,7.6415
44.9400,1.4982,7.6442
44.9600,1.4988,7.6451
44.9800,1.4994,7.6444
45.0000,1.4999,7.6429
45.0200,1.5006,7.6416
45.0400,1.5013,7.6419
45.0600,1.5021,7.6438
45.0800,1.5028,7.6465
45.1000,1.5035,7.6483
45.1200,1.5041,7.6491
45.1400,1.5046,7.6486
45.1600,1.5051,7.6471
45.1800,1.5059,7.6464
45.2000,1.5068,7.6480
45.2200,1.5076,7.6510
45.2400,1.5083,7.6540
45.2600,1.5088,7.6557
45.2800,1.5094,7.6553
45.3000,1.5099,7.6535
45.3200,1.5105,7.6517
45.3400,1.5112,7.6512
45.3600,1.5121,7.6529
45.3800,1.5129,7.6559
45.4000,1.5135,7.6584
45.4200,1.5141,7.6597
45.4400,1.5147,7.6596
45.4600,1.5152,7.6585
45.4800,1.5160,7.6574
45.5000,1.5168,7.6583
45.5200,1.5176,7.6613
45.5400,1.5183,7.6643
45.5600,1.5189,7.6657
45.5800,1.5193,7.6651
45.6000,1.5199,7.6636
45.6200,1.5205,7.6622
45.6400,1.5213,7.6618
45.6600,1.5221,7.6632
45.6800,1.5229,7.6661
45.7000,1.5236,7.6693
45.7200,1.5242,7.6713
45.7400,1.5247,7.6713
45.7600,1.5253,7.6697
45.7800,1.5260,7.6680
45.8000,1.5268,7.6684
45.8200,1.5276,7.6708
45.8400,1.5282,7.6734
45.8600,1.5289,7.6750
45.8800,1.5294,7.6750
45.9000,1.5299,7.6737
45.9200,1.5305,7.6722
45.9400,1.5313,7.6716
45.9600,1.5321,7.6731
45.9800,1.5329,7.6758
46.0000,1.5336,7.6786
46.0200,1.5343,7.6807
46.0400,1.5348,7.6813
46.0600,1.5353,7.6801
46.0800,1.5359,7.6783
46.1000,1.5367,7.6775
46.1200,1.5375,7.6790
46.1400,1.5382,7.6816
46.1600,1.5389,7.6837
46.1800,1.5395,7.6847
46.2000,1.5400,7.6843
46.2200,1.5406,7.6829
46.2400,1.5412,7.6819
46.2600,1.5421,7.6824
46.2800,1.5429,7.6846
46.3000,1.5436,7.6875
46.3200,1.5443,7.6902
46.3400,1.5448,7.6913
46.3600,1.5453,7.6903
46.3800,1.5459,7.6879
46.4000,1.5466,7.6864
46.4200,1.5474,7.6872
46.4400,1.5482,7.6899
46.4600,1.5489,7.6927
46.4800,1.5495,7.6944
46.5000,1.5501,7.6946
46.5200,1.5506,7.6937
46.5400,1.5512,7.6925
46.5600,1.5520,7.6920
46.5800,1.5528,7.6930
46.6000,1.5536,7.6956
46.6200,1.5543,7.6985
46.6400,1.5549,7.7001
46.6600,1.5553,7.6999
46.6800,1.5558,7.6981
46.7000,1.5565,7.6964
46.7200,1.5573,7.6964
46.7400,1.5581,7.6987
46.7600,1.5589,7.7019
46.7800,1.5596,7.7045
46.8000,1.5602,7.7055
46.8200,1.5606,7.7049
46.8400,1.5612,7.7034
46.8600,1.5620,7.7023
46.8800,1.5627,7.7028
46.9000,1.5635,7.7052
46.9200,1.5642,7.7078
46.9400,1.5648,7.7094
46.9600,1.5654,7.7097
46.9800,1.5659,7.7088
47.0000,1.5665,7.7074
47.0200,1.5673,7.7068
47.0400,1.5681,7.7085
47.0600,1.5689,7.7117
47.0800,1.5696,7.7145
47.1000,1.5702,7.7161
47.1200,1.5707,7.7159
47.1400,1.5713,7.7141
47.1600,1.5719,7.7124
47.1800,1.5727,7.7122
47.2000,1.5734,7.7138
47.2200,1.5742,7.7161
47.2400,1.5749,7.7184
47.2600,1.5755,7.7197
47.2800,1.5760,7.7193
47.3000,1.5766,7.7178
47.3200,1.5774,7.7169
47.3400,1.5782,7.7181
47.3600,1.5790,7.7210
47.3800,1.5797,7.7237
47.4000,1.5803,7.7254
47.4200,1.5808,7.7252
47.4400,1.5813,7.7233
47.4600,1.5819,7.7209
47.4800,1.5826,7.7200
47.5000,1.5834,7.7214
47.5200,1.5842,7.7240
47.5400,1.5849,7.7268
47.5600,1.5856,7.7287
47.5800,1.5860,7.7292
47.6000,1.5866,7.7281
47.6200,1.5873,7.7268
47.6400,1.5881,7.7270
47.6600,1.5889,7.7289
47.6800,1.5896,7.7317
47.7000,1.5903,7.7337
47.7200,1.5907,7.7339
47.7400,1.5912,7.7327
47.7600,1.5918,7.7307
47.7800,1.5925,7.7292
47.8000,1.5933,7.7297
47.8200,1.5941,7.7322
47.8400,1.5949,7.7352
47.8600,1.5955,7.7376
47.8800,1.5961,7.7384
47.9000,1.5966,7.7373
47.9200,1.5972,7.7355
47.9400,1.5980,7.7352
47.9600,1.5988,7.7369
47.9800,1.5995,7.7397
48.0000,1.6002,7.7420
48.0200,1.6008,7.7428
48.0400,1.6013,7.7421
48.0600,1.6018,7.7405
48.0800,1.6025,7.7390
48.1000,1.6033,7.7391
48.1200,1.6041,7.7412
48.1400,1.6049,7.7446
48.1600,1.6056,7.7475
48.1800,1.6061,7.7486
48.2000,1.6067,7.7479
48.2200,1.6072,7.7461
48.2400,1.6080,7.7450
48.2600,1.6087,7.7457
48.2800,1.6096,7.7480
48.3000,1.6102,7.7506
48.3200,1.6108,7.7521
48.3400,1.6114,7.7521
48.3600,1.6119,7.7508
48.3800,1.6126,7.7493
48.4000,1.6133,7.7493
48.4200,1.6142,7.7511
48.4400,1.6150,7.7541
48.4600,1.6157,7.7570
48.4800,1.6162,7.7582
48.5000,1.6167,7.7578
48.5200,1.6173,7.7561
48.5400,1.6179,7.7542
48.5600,1.6187,7.7543
48.5800,1.6195,7.7563
48.6000,1.6203,7.7591
48.6200,1.6209,7.7611
48.6400,1.6214,7.7616
48.6600,1.6219,7.7605
48.6800,1.6226,7.7590
48.7000,1.6233,7.7580
48.7200,1.6242,7.7589
48.7400,1.6250,7.7619
48.7600,1.6256,7.7652
48.7800,1.6262,7.7666
48.8000,1.6267,7.7662
48.8200,1.6272,7.7642
48.8400,1.6279,7.7623
48.8600,1.6287,7.7619
48.8800,1.6295,7.7641
48.9000,1.6303,7.7673
48.9200,1.6309,7.7701
48.9400,1.6315,7.7712
48.9600,1.6321,7.7704
48.9800,1.6326,7.7687
49.0000,1.6333,7.7674
49.0200,1.6341,7.7677
49.0400,1.6349,7.7701
49.0600,1.6356,7.7729
49.0800,1.6362,7.7746
49.1000,1.6367,7.7747
49.1200,1.6372,7.7733
49.1400,1.6378,7.7717
49.1600,1.6386,7.7709
49.1800,1.6394,7.7722
49.2000,1.6402,7.7753
49.2200,1.6409,7.7785
49.2400,1.6415,7.7802
49.2600,1.6421,7.7800
49.2800,1.6426,7.7786
49.3000,1.6432,7.7767
49.3200,1.6440,7.7760
49.3400,1.6448,7.7775
49.3600,1.6455,7.7803
49.3800,1.6462,7.7826
49.4000,1.6467,7.7834
49.4200,1.6473,7.7828
49.4400,1.6479,7.7814
49.4600,1.6486,7.7803
49.4800,1.6494,7.7808
49.5000,1.6502,7.7833
49.5200,1.6510,7.7867
49.5400,1.6516,7.7891
49.5600,1.6521,7.7897
49.5800,1.6526,7.7885
49.6000,1.6532,7.7866
49.6200,1.6539,7.7852
49.6400,1.6547,7.7859
49.6600,1.6555,7.7883
49.6800,1.6562,7.7910
49.7000,1.6569,7.7930
49.7200,1.6574,7.7933
49.7400,1.6579,7.7919
49.7600,1.6586,7.7903
49.7800,1.6594,7.7904
49.8000,1.6602,7.7927
49.8200,1.6610,7.7957
49.8400,1.6616,7.7981
49.8600,1.6621,7.7985
49.8800,1.6626,7.7971
49.9000,1.6632,7.7953
49.9200,1.6639,7.7941
49.9400,1.6647,7.7944
49.9600,1.6655,7.7965
49.9800,1.6662,7.7994
50.0000,1.6669,7.8018
50.0200,1.6674,7.8026
50.0400,1.6680,7.8014
50.0600,1.6686,7.7998
50.0800,1.6694,7.7992
50.1000,1.6702,7.8008
50.1200,1.6709,7.8036
50.1400,1.6716,7.8056
50.1600,1.6721,7.8062
50.1800,1.6727,7.8055
50.2000,1.6732,7.8041
50.2200,1.6738,7.8028
50.2400,1.6746,7.8026
50.2600,1.6755,7.8045
50.2800,1.6762,7.8075
50.3000,1.6769,7.8102
50.3200,1.6775,7.8113
50.3400,1.6781,7.8106
50.3600,1.6786,7.8091
50.3800,1.6793,7.8078
50.4000,1.6801,7.8080
50.4200,1.6808,7.8098
50.4400,1.6815,7.8120
50.4600,1.6821,7.8137
50.4800,1.6827,7.8141
50.5000,1.6832,7.8132
50.5200,1.6839,7.8119
50.5400,1.6846,7.8110
50.5600,1.6854,7.8120
50.5800,1.6862,7.8145
50.6000,1.6869,7.8172
50.6200,1.6875,7.8193
50.6400,1.6880,7.8195
50.6600,1.6886,7.8181
50.6800,1.6892,7.8164
50.7000,1.6900,7.8158
50.7200,1.6908,7.8174
50.7400,1.6915,7.8200
50.7600,1.6922,7.8223
50.7800,1.6928,7.8233
50.8000,1.6933,7.8228
50.8200,1.6939,7.8213
50.8400,1.6946,7.8204
50.8600,1.6954,7.8212
50.8800,1.6962,7.8236
50.9000,1.6969,7.8263
50.9200,1.6976,7.8279
50.9400,1.6981,7.8280
50.9600,1.6986,7.8268
50.9800,1.6992,7.8252
51.0000,1.7000,7.8244
51.0200,1.7008,7.8259
51.0400,1.7015,7.8284
51.0600,1.7022,7.8307
51.0800,1.7029,7.8320
51.1000,1.7034,7.8320
51.1200,1.7039,7.8308
51.1400,1.7046,7.8296
51.1600,1.7054,7.8299
51.1800,1.7062,7.8319
51.2000,1.7069,7.8343
51.2200,1.7075,7.8358
51.2400,1.7081,7.8361
51.2600,1.7086,7.8352
51.2800,1.7092,7.8336
51.3000,1.7099,7.8325
51.3200,1.7107,7.8334
51.3400,1.7116,7.8361
51.3600,1.7123,7.8391
51.3800,1.7129,7.8406
51.4000,1.7134,7.8405
51.4200,1.7140,7.8391
51.4400,1.7146,7.8376
51.4600,1.7154,7.8371
51.4800,1.7161,7.8385
51.5000,1.7169,7.8408
51.5200,1.7176,7.8428
51.5400,1.7181,7.8437
51.5600,1.7186,7.8433
51.5800,1.7192,7.8418
51.6000,1.7199,7.8407
51.6200,1.7208,7.8413
51.6400,1.7216,7.8437
51.6600,1.7223,7.8465
51.6800,1.7230,7.8486
51.7000,1.7234,7.8489
51.7200,1.7240,7.8476
51.7400,1.7245,7.8458
51.7600,1.7252,7.8443
51.7800,1.7260,7.8449
51.8000,1.7268,7.8472
51.8200,1.7275,7.8496
51.8400,1.7281,7.8512
51.8600,1.7287,7.8514
51.8800,1.7292,7.8503
51.9000,1.7299,7.8487
51.9200,1.7307,7.8485
51.9400,1.7315,7.8507
51.9600,1.7323,7.8539
51.9800,1.7329,7.8562
52.0000,1.7334,7.8566
52.0200,1.7339,7.8555
52.0400,1.7345,7.8536
52.0600,1.7352,7.8520
52.0800,1.7360,7.8522
52.1000,1.7368,7.8544
52.1200,1.7376,7.8575
52.1400,1.7382,7.8602
52.1600,1.7388,7.8613
52.1800,1.7393,7.8604
52.2000,1.7399,7.8584
52.2200,1.7407,7.8575
52.2400,1.7416,7.8592
52.2600,1.7423,7.8622
52.2800,1.7429,7.8645
52.3000,1.7435,7.8650
52.3200,1.7440,7.8640
52.3400,1.7446,7.8624
52.3600,1.7452,7.8610
52.3800,1.7460,7.8610
52.4000,1.7468,7.8628
52.4200,1.7476,7.8656
52.4400,1.7483,7.8683
52.4600,1.7489,7.8695
52.4800,1.7494,7.8688
52.5000,1.7500,7.8672
52.5200,1.7507,7.8659
52.5400,1.7515,7.8662
52.5600,1.7522,7.8682
52.5800,1.7529,7.8704
52.6000,1.7535,7.8716
52.6200,1.7541,7.8717
52.6400,1.7546,7.8706
52.6600,1.7552,7.8692
52.6800,1.7560,7.8687
52.7000,1.7568,7.8700
52.7200,1.7576,7.8726
52.7400,1.7583,7.8753
52.7600,1.7589,7.8772
52.7800,1.7594,7.8772
52.8000,1.7599,7.8752
52.8200,1.7606,7.8730
52.8400,1.7614,7.8726
52.8600,1.7622,7.8745
52.8800,1.7629,7.8773
52.9000,1.7636,7.8794
52.9200,1.7642,7.8803
52.9400,1.7647,7.8797
52.9600,1.7652,7.8782
52.9800,1.7659,7.8770
53.0000,1.7667,7.8774
53.0200,1.7675,7.8794
53.0400,1.7683,7.8822
53.0600,1.7689,7.8843
53.0800,1.7694,7.8848
53.1000,1.7699,7.8833
53.1200,1.7705,7.8810
53.1400,1.7712,7.8798
53.1600,1.7720,7.8811
53.1800,1.7728,7.8839
53.2000,1.7735,7.8864
53.2200,1.7741,7.8879
53.2400,1.7747,7.8877
53.2600,1.7752,7.8865
53.2800,1.7759,7.8851
53.3000,1.7767,7.8846
53.3200,1.7775,7.8864
53.3400,1.7782,7.8892
53.3600,1.7788,7.8912
53.3800,1.7794,7.8918
53.4000,1.7799,7.8912
53.4200,1.7805,7.8898
53.4400,1.7812,7.8885
53.4600,1.7821,7.8890
53.4800,1.7829,7.8917
53.5000,1.7836,7.8948
53.5200,1.7842,7.8969
53.5400,1.7848,7.8972
53.5600,1.7853,7.8960
53.5800,1.7859,7.8942
53.6000,1.7867,7.8932
53.6200,1.7874,7.8941
53.6400,1.7882,7.8965
53.6600,1.7889,7.8988
53.6800,1.7895,7.9002
53.7000,1.7900,7.9001
53.7200,1.7906,7.8988
53.7400,1.7913,7.8973
53.7600,1.7921,7.8974
53.7800,1.7929,7.8995
53.8000,1.7936,7.9024
53.8200,1.7943,7.9049
53.8400,1.7949,7.9058
53.8600,1.7953,7.9048
53.8800,1.7959,7.9025
53.9000,1.7966,7.9008
53.9200,1.7973,7.9007
53.9400,1.7981,7.9024
53.9600,1.7989,7.9051
53.9800,1.7996,7.9074
54.0000,1.8001,7.9084
54.0200,1.8006,7.9073
54.0400,1.8012,7.9056
54.0600,1.8020,7.9050
54.0800,1.8029,7.9064
54.1000,1.8036,7.9092
54.1200,1.8043,7.9117
54.1400,1.8049,7.9128
54.1600,1.8054,7.9118
54.1800,1.8059,7.9097
54.2000,1.8065,7.9077
54.2200,1.8073,7.9072
54.2400,1.8081,7.9089
54.2600,1.8089,7.9118
54.2800,1.8096,7.9144
54.3000,1.8101,7.9157
54.3200,1.8107,7.9152
54.3400,1.8112,7.9134
54.3600,1.8120,7.9122
54.3800,1.8128,7.9129
54.4000,1.8136,7.9152
54.4200,1.8142,7.9177
54.4400,1.8148,7.9191
54.4600,1.8154,7.9186
54.4800,1.8159,7.9170
54.5000,1.8164,7.9150
54.5200,1.8172,7.9141
54.5400,1.8180,7.9152
54.5600,1.8189,7.9177
54.5800,1.8196,7.9207
54.6000,1.8202,7.9228
54.6200,1.8207,7.9229
54.6400,1.8213,7.9214
54.6600,1.8219,7.9198
54.6800,1.8227,7.9198
54.7000,1.8235,7.9215
54.7200,1.8242,7.9238
54.7400,1.8249,7.9257
54.7600,1.8254,7.9261
54.7800,1.8259,7.9250
54.8000,1.8265,7.9234
54.8200,1.8272,7.9222
54.8400,1.8280,7.9229
54.8600,1.8289,7.9255
54.8800,1.8296,7.9288
54.9000,1.8303,7.9311
54.9200,1.8308,7.9316
54.9400,1.8313,7.9302
54.9600,1.8319,7.9283
54.9800,1.8327,7.9272
55.0000,1.8335,7.9285
55.0200,1.8342,7.9311
55.0400,1.8349,7.9334
55.0600,1.8355,7.9345
55.0800,1.8360,7.9339
55.1000,1.8366,7.9324
55.1200,1.8372,7.9308
55.1400,1.8380,7.9307
55.1600,1.8389,7.9330
55.1800,1.8396,7.9366
55.2000,1.8403,7.9389
55.2200,1.8408,7.9388
55.2400,1.8412,7.9372
55.2600,1.8418,7.9350
55.2800,1.8426,7.9337
55.3000,1.8434,7.9347
55.3200,1.8442,7.9374
55.3400,1.8449,7.9405
55.3600,1.8455,7.9421
55.3800,1.8461,7.9419
55.4000,1.8466,7.9405
55.4200,1.8472,7.9387
55.4400,1.8481,7.9383
55.4600,1.8489,7.9399
55.4800,1.8496,7.9425
55.5000,1.8502,7.9445
55.5200,1.8508,7.9450
55.5400,1.8513,7.9440
55.5600,1.8519,7.9421
55.5800,1.8526,7.9406
55.6000,1.8534,7.9410
55.6200,1.8542,7.9434
55.6400,1.8550,7.9465
55.6600,1.8556,7.9487
55.6800,1.8561,7.9489
55.7000,1.8567,7.9478
55.7200,1.8573,7.9460
55.7400,1.8580,7.9450
55.7600,1.8588,7.9454
55.7800,1.8595,7.9476
55.8000,1.8602,7.9498
55.8200,1.8608,7.9509
55.8400,1.8613,7.9506
55.8600,1.8619,7.9492
55.8800,1.8625,7.9476
55.9000,1.8633,7.9472
55.9200,1.8641,7.9487
55.9400,1.8649,7.9517
55.9600,1.8656,7.9548
55.9800,1.8662,7.9562
56.0000,1.8667,7.9558
56.0200,1.8672,7.9539
56.0400,1.8679,7.9519
56.0600,1.8686,7.9514
56.0800,1.8694,7.9531
56.1000,1.8702,7.9557
56.1200,1.8709,7.9579
56.1400,1.8714,7.9588
56.1600,1.8719,7.9579
56.1800,1.8725,7.9561
56.2000,1.8733,7.9551
56.2200,1.8741,7.9561
56.2400,1.8749,7.9589
56.2600,1.8756,7.9618
56.2800,1.8762,7.9631
56.3000,1.8767,7.9627
56.3200,1.8772,7.9611
56.3400,1.8778,7.9591
56.3600,1.8786,7.9584
56.3800,1.8794,7.9598
56.4000,1.8802,7.9624
56.4200,1.8809,7.9649
56.4400,1.8815,7.9665
56.4600,1.8820,7.9663
56.4800,1.8826,7.9649
56.5000,1.8834,7.9635
56.5200,1.8842,7.9641
56.5400,1.8849,7.9662
56.5600,1.8856,7.9685
56.5800,1.8862,7.9698
56.6000,1.8867,7.9694
56.6200,1.8873,7.9682
56.6400,1.8879,7.9664
56.6600,1.8886,7.9654
56.6800,1.8894,7.9665
56.7000,1.8902,7.9692
56.7200,1.8910,7.9719
56.7400,1.8916,7.9736
56.7600,1.8921,7.9737
56.7800,1.8927,7.9725
56.8000,1.8933,7.9710
56.8200,1.8941,7.9705
56.8400,1.8948,7.9718
56.8600,1.8956,7.9737
56.8800,1.8962,7.9754
56.9000,1.8968,7.9764
56.9200,1.8973,7.9754
56.9400,1.8979,7.9736
56.9600,1.8986,7.9721
56.9800,1.8993,7.9726
57.0000,1.9002,7.9746
57.0200,1.9010,7.9774
57.0400,1.9016,7.9798
57.0600,1.9021,7.9806
57.0800,1.9026,7.9795
57.1000,1.9032,7.9774
57.1200,1.9039,7.9761
57.1400,1.9047,7.9765
57.1600,1.9055,7.9787
57.1800,1.9062,7.9808
57.2000,1.9068,7.9823
57.2200,1.9074,7.9824
57.2400,1.9079,7.9811
57.2600,1.9085,7.9797
57.2800,1.9093,7.9795
57.3000,1.9101,7.9813
57.3200,1.9109,7.9839
57.3400,1.9116,7.9862
57.3600,1.9121,7.9871
57.3800,1.9126,7.9858
57.4000,1.9132,7.9838
57.4200,1.9139,7.9824
57.4400,1.9147,7.9829
57.4600,1.9154,7.9850
57.4800,1.9162,7.9877
57.5000,1.9168,7.9896
57.5200,1.9174,7.9900
57.5400,1.9180,7.9891
57.5600,1.9186,7.9875
57.5800,1.9194,7.9869
57.6000,1.9201,7.9881
57.6200,1.9209,7.9904
57.6400,1.9216,7.9925
57.6600,1.9221,7.9935
57.6800,1.9227,7.9929
57.7000,1.9232,7.9913
57.7200,1.9239,7.9897
57.7400,1.9247,7.9896
57.7600,1.9255,7.9916
57.7800,1.9263,7.9945
57.8000,1.9269,7.9969
57.8200,1.9275,7.9977
57.8400,1.9280,7.9968
57.8600,1.9286,7.9950
57.8800,1.9293,7.9939
57.9000,1.9301,7.9946
57.9200,1.9309,7.9965
57.9400,1.9316,7.9987
57.9600,1.9322,8.0002
57.9800,1.9327,8.0000
58.0000,1.9333,7.9985
58.0200,1.9339,7.9971
58.0400,1.9347,7.9966
58.0600,1.9355,7.9983
58.0800,1.9363,8.0013
58.1000,1.9370,8.0036
58.1200,1.9376,8.0047
58.1400,1.9381,8.0038
58.1600,1.9386,8.0017
58.1800,1.9392,7.9995
58.2000,1.9400,7.9988
58.2200,1.9408,8.0005
58.2400,1.9415,8.0033
58.2600,1.9422,8.0055
58.2800,1.9428,8.0062
58.3000,1.9433,8.0052
58.3200,1.9439,8.0035
58.3400,1.9447,8.0025
58.3600,1.9455,8.0040
58.3800,1.9463,8.0068
58.4000,1.9469,8.0095
58.4200,1.9475,8.0104
58.4400,1.9480,8.0093
58.4600,1.9486,8.0074
58.4800,1.9491,8.0054
58.5000,1.9499,8.0046
58.5200,1.9507,8.0060
58.5400,1.9515,8.0086
58.5600,1.9522,8.0113
58.5800,1.9528,8.0127
58.6000,1.9533,8.0124
58.6200,1.9539,8.0106
58.6400,1.9546,8.0090
58.6600,1.9554,8.0094
58.6800,1.9562,8.0118
58.7000,1.9569,8.0145
58.7200,1.9575,8.0157
58.7400,1.9580,8.0152
58.7600,1.9586,8.0137
58.7800,1.9592,8.0121
58.8000,1.9599,8.0116
58.8200,1.9607,8.0125
58.8400,1.9615,8.0147
58.8600,1.9623,8.0176
58.8800,1.9629,8.0197
58.9000,1.9634,8.0201
58.9200,1.9640,8.0186
58.9400,1.9646,8.0168
58.9600,1.9654,8.0163
58.9800,1.9662,8.0178
59.0000,1.9669,8.0201
59.0200,1.9675,8.0218
59.0400,1.9681,8.0223
59.0600,1.9686,8.0213
59.0800,1.9692,8.0197
59.1000,1.9699,8.0185
59.1200,1.9707,8.0188
59.1400,1.9715,8.0209
59.1600,1.9723,8.0237
59.1800,1.9730,8.0263
59.2000,1.9735,8.0273
59.2200,1.9740,8.0262
59.2400,1.9746,8.0237
59.2600,1.9753,8.0221
59.2800,1.9761,8.0229
59.3000,1.9769,8.0253
59.3200,1.9776,8.0275
59.3400,1.9782,8.0286
59.3600,1.9787,8.0283
59.3800,1.9792,8.0271
59.4000,1.9799,8.0257
59.4200,1.9806,8.0251
59.4400,1.9815,8.0263
59.4600,1.9823,8.0289
59.4800,1.9830,8.0315
59.5000,1.9835,8.0327
59.5200,1.9840,8.0317
59.5400,1.9846,8.0297
59.5600,1.9852,8.0277
59.5800,1.9861,8.0277
59.6000,1.9869,8.0297
59.6200,1.9876,8.0324
59.6400,1.9882,8.0344
59.6600,1.9887,8.0349
59.6800,1.9893,8.0339
59.7000,1.9899,8.0320
59.7200,1.9907,8.0310
59.7400,1.9915,8.0321
59.7600,1.9922,8.0345
59.7800,1.9929,8.0368
59.8000,1.9935,8.0376
59.8200,1.9940,8.0370
59.8400,1.9945,8.0356
59.8600,1.9952,8.0339
59.8800,1.9959,8.0332
59.9000,1.9968,8.0347
59.9200,1.9976,8.0374
59.9400,1.9983,8.0399
59.9600,1.9988,8.0413
59.9800,1.9993,8.0408
60.0000,1.9999,8.0390
60.0200,2.0006,8.0372
60.0400,2.0013,8.0366
60.0600,2.0021,8.0381
60.0800,2.0028,8.0404
60.1000,2.0035,8.0423
60.1200,2.0041,8.0431
60.1400,2.0046,8.0425
60.1600,2.0052,8.0410
60.1800,2.0060,8.0403
60.2000,2.0068,8.0414
60.2200,2.0076,8.0440
60.2400,2.0083,8.0468
60.2600,2.0089,8.0483
60.2800,2.0094,8.0480
60.3000,2.0099,8.0461
60.3200,2.0105,8.0440
60.3400,2.0112,8.0430
60.3600,2.0120,8.0437
60.3800,2.0128,8.0459
60.4000,2.0135,8.0485
60.4200,2.0142,8.0503
60.4400,2.0147,8.0503
60.4600,2.0152,8.0488
60.4800,2.0160,8.0473
60.5000,2.0168,8.0478
60.5200,2.0176,8.0500
60.5400,2.0184,8.0527
60.5600,2.0189,8.0544
60.5800,2.0194,8.0542
60.6000,2.0200,8.0523
60.6200,2.0205,8.0501
60.6400,2.0212,8.0488
60.6600,2.0221,8.0493
60.6800,2.0229,8.0515
60.7000,2.0236,8.0543
60.7200,2.0242,8.0564
60.7400,2.0247,8.0565
60.7600,2.0253,8.0550
60.7800,2.0260,8.0534
60.8000,2.0268,8.0532
60.8200,2.0276,8.0549
60.8400,2.0283,8.0575
60.8600,2.0289,8.0592
60.8800,2.0294,8.0592
60.9000,2.0300,8.0579
60.9200,2.0305,8.0558
60.9400,2.0312,8.0540
60.9600,2.0320,8.0540
60.9800,2.0328,8.0560
61.0000,2.0336,8.0591
61.0200,2.0343,8.0614
61.0400,2.0347,8.0623
61.0600,2.0353,8.0611
61.0800,2.0359,8.0592
61.1000,2.0367,8.0583
61.1200,2.0375,8.0592
61.1400,2.0382,8.0614
61.1600,2.0389,8.0632
61.1800,2.0394,8.0639
61.2000,2.0400,8.0634
61.2200,2.0405,8.0618
61.2400,2.0411,8.0603
61.2600,2.0419,8.0599
61.2800,2.0428,8.0614
61.3000,2.0436,8.0644
61.3200,2.0443,8.0672
61.3400,2.0448,8.0682
61.3600,2.0453,8.0672
61.3800,2.0459,8.0654
61.4000,2.0466,8.0638
61.4200,2.0473,8.0639
61.4400,2.0481,8.0658
61.4600,2.0489,8.0682
61.4800,2.0495,8.0699
61.5000,2.0500,8.0701
61.5200,2.0506,8.0689
61.5400,2.0512,8.0671
61.5600,2.0519,8.0663
61.5800,2.0529,8.0676
61.6000,2.0536,8.0707
61.6200,2.0543,8.0736
61.6400,2.0548,8.0748
61.6600,2.0553,8.0737
61.6800,2.0559,8.0716
61.7000,2.0565,8.0694
61.7200,2.0573,8.0693
61.7400,2.0582,8.0713
61.7600,2.0589,8.0740
61.7800,2.0596,8.0763
61.8000,2.0601,8.0772
61.8200,2.0607,8.0762
61.8400,2.0613,8.0746
61.8600,2.0620,8.0734
61.8800,2.0628,8.0739
61.9000,2.0636,8.0762
61.9200,2.0643,8.0784
61.9400,2.0649,8.0794
61.9600,2.0653,8.0790
61.9800,2.0659,8.0774
62.0000,2.0665,8.0757
62.0200,2.0673,8.0749
62.0400,2.0682,8.0763
62.0600,2.0690,8.0792
62.0800,2.0697,8.0819
62.1000,2.0703,8.0831
62.1200,2.0707,8.0828
62.1400,2.0713,8.0811
62.1600,2.0719,8.0792
62.1800,2.0727,8.0786
62.2000,2.0735,8.0800
62.2200,2.0742,8.0824
62.2400,2.0749,8.0840
62.2600,2.0754,8.0842
62.2800,2.0759,8.0830
62.3000,2.0765,8.0812
62.3200,2.0772,8.0799
62.3400,2.0781,8.0805
62.3600,2.0789,8.0830
62.3800,2.0796,8.0860
62.4000,2.0803,8.0881
62.4200,2.0808,8.0882
62.4400,2.0813,8.0867
62.4600,2.0818,8.0844
62.4800,2.0826,8.0828
62.5000,2.0834,8.0834
62.5200,2.0841,8.0857
62.5400,2.0848,8.0879
62.5600,2.0855,8.0893
62.5800,2.0860,8.0891
62.6000,2.0866,8.0877
62.6200,2.0872,8.0861
62.6400,2.0881,8.0859
62.6600,2.0889,8.0878
62.6800,2.0896,8.0908
62.7000,2.0902,8.0927
62.7200,2.0907,8.0926
62.7400,2.0913,8.0915
62.7600,2.0918,8.0894
62.7800,2.0925,8.0879
62.8000,2.0933,8.0882
62.8200,2.0941,8.0905
62.8400,2.0949,8.0933
62.8600,2.0956,8.0953
62.8800,2.0961,8.0960
62.9000,2.0966,8.0948
62.9200,2.0973,8.0929
62.9400,2.0981,8.0924
62.9600,2.0989,8.0941
62.9800,2.0996,8.0965
63.0000,2.1002,8.0981
63.0200,2.1008,8.0986
63.0400,2.1013,8.0976
63.0600,2.1019,8.0959
63.0800,2.1025,8.0945
63.1000,2.1033,8.0943
63.1200,2.1041,8.0961
63.1400,2.1049,8.0988
63.1600,2.1056,8.1012
63.1800,2.1062,8.1021
63.2000,2.1067,8.1014
63.2200,2.1073,8.0998
63.2400,2.1080,8.0986
63.2600,2.1088,8.0991
63.2800,2.1095,8.1008
63.3000,2.1102,8.1028
63.3200,2.1109,8.1041
63.3400,2.1114,8.1040
63.3600,2.1119,8.1025
63.3800,2.1125,8.1008
63.4000,2.1133,8.1001
63.4200,2.1141,8.1014
63.4400,2.1149,8.1041
63.4600,2.1156,8.1066
63.4800,2.1162,8.1082
63.5000,2.1167,8.1074
63.5200,2.1172,8.1053
63.5400,2.1179,8.1033
63.5600,2.1187,8.1029
63.5800,2.1195,8.1044
63.6000,2.1202,8.1066
63.6200,2.1209,8.1085
63.6400,2.1215,8.1090
63.6600,2.1220,8.1082
63.6800,2.1226,8.1066
63.7000,2.1233,8.1053
63.7200,2.1242,8.1060
63.7400,2.1250,8.1086
63.7600,2.1256,8.1112
63.7800,2.1262,8.1125
63.8000,2.1267,8.1117
63.8200,2.1272,8.1097
63.8400,2.1279,8.1077
63.8600,2.1286,8.1069
63.8800,2.1294,8.1081
63.9000,2.1302,8.1104
63.9200,2.1309,8.1125
63.9400,2.1314,8.1136
63.9600,2.1320,8.1134
63.9800,2.1326,8.1121
64.0000,2.1333,8.1108
64.0200,2.1341,8.1110
64.0400,2.1348,8.1128
64.0600,2.1355,8.1149
64.0800,2.1362,8.1165
64.1000,2.1367,8.1166
64.1200,2.1372,8.1155
64.1400,2.1378,8.1138
64.1600,2.1386,8.1125
64.1800,2.1394,8.1134
64.2000,2.1402,8.1160
64.2200,2.1409,8.1186
64.2400,2.1415,8.1200
64.2600,2.1421,8.1198
64.2800,2.1426,8.1184
64.3000,2.1432,8.1169
64.3200,2.1440,8.1162
64.3400,2.1448,8.1172
64.3600,2.1455,8.1192
64.3800,2.1462,8.1213
64.4000,2.1468,8.1221
64.4200,2.1473,8.1214
64.4400,2.1478,8.1196
64.4600,2.1486,8.1184
64.4800,2.1494,8.1191
64.5000,2.1502,8.1215
64.5200,2.1510,8.1244
64.5400,2.1516,8.1261
64.5600,2.1521,8.1261
64.5800,2.1527,8.1244
64.6000,2.1532,8.1220
64.6200,2.1539,8.1206
64.6400,2.1547,8.1214
64.6600,2.1556,8.1237
64.6800,2.1562,8.1259
64.7000,2.1568,8.1270
64.7200,2.1574,8.1268
64.7400,2.1579,8.1253
64.7600,2.1586,8.1237
64.7800,2.1595,8.1238
64.8000,2.1603,8.1260
64.8200,2.1610,8.1290
64.8400,2.1616,8.1305
64.8600,2.1621,8.1302
64.8800,2.1626,8.1285
64.9000,2.1632,8.1264
64.9200,2.1639,8.1249
64.9400,2.1647,8.1252
64.9600,2.1655,8.1273
64.9800,2.1663,8.1302
65.0000,2.1669,8.1321
65.0200,2.1674,8.1323
65.0400,2.1680,8.1308
65.0600,2.1686,8.1290
65.0800,2.1694,8.1284
65.1000,2.1702,8.1299
65.1200,2.1709,8.1322
65.1400,2.1715,8.1338
65.1600,2.1721,8.1341
65.1800,2.1726,8.1329
65.2000,2.1732,8.1310
65.2200,2.1738,8.1295
65.2400,2.1746,8.1294
65.2600,2.1754,8.1311
65.2800,2.1762,8.1338
65.3000,2.1769,8.1362
65.3200,2.1775,8.1375
65.3400,2.1780,8.1367
65.3600,2.1786,8.1347
65.3800,2.1793,8.1332
65.4000,2.1801,8.1335
65.4200,2.1808,8.1353
65.4400,2.1815,8.1373
65.4600,2.1821,8.1383
65.4800,2.1827,8.1384
65.5000,2.1832,8.1372
65.5200,2.1838,8.1356
65.5400,2.1846,8.1351
65.5600,2.1854,8.1362
65.5800,2.1862,8.1385
65.6000,2.1870,8.1412
65.6200,2.1875,8.1430
65.6400,2.1880,8.1425
65.6600,2.1886,8.1403
65.6800,2.1892,8.1380
65.7000,2.1901,8.1377
65.7200,2.1909,8.1395
65.7400,2.1916,8.1421
65.7600,2.1922,8.1438
65.7800,2.1928,8.1442
65.8000,2.1933,8.1432
65.8200,2.1939,8.1416
65.8400,2.1946,8.1405
65.8600,2.1954,8.1411
65.8800,2.1963,8.1432
65.9000,2.1970,8.1456
65.9200,2.1976,8.1472
65.9400,2.1981,8.1471
65.9600,2.1986,8.1453
65.9800,2.1992,8.1429
66.0000,2.2000,8.1420
66.0200,2.2008,8.1434
66.0400,2.2016,8.1460
66.0600,2.2023,8.1483
66.0800,2.2029,8.1491
66.1000,2.2034,8.1483
66.1200,2.2039,8.1464
66.1400,2.2046,8.1451
66.1600,2.2054,8.1452
66.1800,2.2062,8.1469
66.2000,2.2069,8.1491
66.2200,2.2076,8.1503
66.2400,2.2081,8.1504
66.2600,2.2086,8.1491
66.2800,2.2092,8.1473
66.3000,2.2099,8.1462
66.3200,2.2107,8.1470
66.3400,2.2115,8.1493
66.3600,2.2123,8.1518
66.3800,2.2129,8.1533
66.4000,2.2135,8.1534
66.4200,2.2140,8.1519
66.4400,2.2145,8.1500
66.4600,2.2153,8.1489
66.4800,2.2160,8.1493
66.5000,2.2168,8.1510
66.5200,2.2175,8.1530
66.5400,2.2181,8.1542
66.5600,2.2186,8.1538
66.5800,2.2192,8.1524
66.6000,2.2199,8.1509
66.6200,2.2207,8.1510
66.6400,2.2215,8.1528
66.6600,2.2223,8.1553
66.6800,2.2229,8.1574
66.7000,2.2235,8.1580
66.7200,2.2240,8.1567
66.7400,2.2245,8.1544
66.7600,2.2252,8.1528
66.7800,2.2260,8.1529
66.8000,2.2267,8.1547
66.8200,2.2275,8.1570
66.8400,2.2282,8.1591
66.8600,2.2287,8.1599
66.8800,2.2293,8.1588
66.9000,2.2299,8.1571
66.9200,2.2307,8.1567
66.9400,2.2316,8.1584
66.9600,2.2323,8.1610
66.9800,2.2330,8.1631
67.0000,2.2335,8.1640
67.0200,2.2340,8.1628
67.0400,2.2345,8.1604
67.0600,2.2352,8.1585
67.0800,2.2360,8.1581
67.1000,2.2368,8.1597
67.1200,2.2376,8.1623
67.1400,2.2383,8.1648
67.1600,2.2388,8.1660
67.1800,2.2393,8.1653
67.2000,2.2399,8.1636
67.2200,2.2407,8.1625
67.2400,2.2415,8.1634
67.2600,2.2423,8.1655
67.2800,2.2429,8.1674
67.3000,2.2435,8.1682
67.3200,2.2441,8.1674
67.3400,2.2446,8.1656
67.3600,2.2452,8.1638
67.3800,2.2459,8.1630
67.4000,2.2468,8.1642
67.4200,2.2476,8.1671
67.4400,2.2483,8.1697
67.4600,2.2489,8.1712
67.4800,2.2494,8.1709
67.5000,2.2499,8.1689
67.5200,2.2506,8.1669
67.5400,2.2514,8.1670
67.5600,2.2522,8.1687
67.5800,2.2529,8.1708
67.6000,2.2535,8.1721
67.6200,2.2541,8.1720
67.6400,2.2546,8.1707
67.6600,2.2552,8.1688
67.6800,2.2559,8.1676
67.7000,2.2567,8.1682
67.7200,2.2576,8.1707
67.7400,2.2583,8.1734
67.7600,2.2589,8.1753
67.7800,2.2594,8.1753
67.8000,2.2599,8.1734
67.8200,2.2606,8.1711
67.8400,2.2613,8.1700
67.8600,2.2621,8.1711
67.8800,2.2629,8.1734
67.9000,2.2635,8.1753
67.9200,2.2640,8.1758
67.9400,2.2646,8.1746
67.9600,2.2652,8.1729
67.9800,2.2659,8.1713
68.0000,2.2667,8.1716
68.0200,2.2676,8.1738
68.0400,2.2683,8.1769
68.0600,2.2689,8.1789
68.0800,2.2694,8.1787
68.1000,2.2699,8.1770
68.1200,2.2705,8.1746
68.1400,2.2712,8.1733
68.1600,2.2721,8.1743
68.1800,2.2729,8.1769
68.2000,2.2736,8.1795
68.2200,2.2742,8.1809
68.2400,2.2747,8.1807
68.2600,2.2753,8.1793
68.2800,2.2759,8.1774
68.3000,2.2767,8.1769
68.3200,2.2775,8.1786
68.3400,2.2782,8.1810
68.3600,2.2789,8.1828
68.3800,2.2794,8.1831
68.4000,2.2799,8.1821
68.4200,2.2805,8.1800
68.4400,2.2812,8.1782
68.4600,2.2820,8.1786
68.4800,2.2829,8.1809
68.5000,2.2836,8.1840
68.5200,2.2843,8.1862
68.5400,2.2848,8.1862
68.5600,2.2854,8.1846
68.5800,2.2859,8.1825
68.6000,2.2867,8.1813
68.6200,2.2875,8.1822
68.6400,2.2882,8.1843
68.6600,2.2889,8.1863
68.6800,2.2895,8.1872
68.7000,2.2900,8.1866
68.7200,2.2906,8.1849
68.7400,2.2912,8.1831
68.7600,2.2921,8.1827
68.7800,2.2929,8.1845
68.8000,2.2937,8.1876
68.8200,2.2944,8.1901
68.8400,2.2949,8.1910
68.8600,2.2954,8.1898
68.8800,2.2959,8.1874
68.9000,2.2966,8.1853
68.9200,2.2974,8.1851
68.9400,2.2982,8.1870
68.9600,2.2989,8.1894
68.9800,2.2996,8.1908
69.0000,2.3000,8.1911
69.0200,2.3006,8.1898
69.0400,2.3012,8.1880
69.0600,2.3020,8.1871
69.0800,2.3028,8.1883
69.1000,2.3036,8.1908
69.1200,2.3043,8.1933
69.1400,2.3048,8.1944
69.1600,2.3053,8.1935
69.1800,2.3059,8.1914
69.2000,2.3065,8.1895
69.2200,2.3073,8.1887
69.2400,2.3081,8.1899
69.2600,2.3088,8.1921
69.2800,2.3095,8.1941
69.3000,2.3101,8.1951
69.3200,2.3106,8.1946
69.3400,2.3112,8.1932
69.3600,2.3120,8.1917
69.3800,2.3128,8.1922
69.4000,2.3135,8.1942
69.4200,2.3142,8.1960
69.4400,2.3148,8.1970
69.4600,2.3154,8.1966
69.4800,2.3159,8.1950
69.5000,2.3165,8.1933
69.5200,2.3172,8.1924
69.5400,2.3180,8.1932
69.5600,2.3188,8.1956
69.5800,2.3196,8.1985
69.6000,2.3202,8.2002
69.6200,2.3207,8.2001
69.6400,2.3213,8.1986
69.6600,2.3219,8.1968
69.6800,2.3227,8.1963
69.7000,2.3234,8.1974
69.7200,2.3242,8.1991
69.7400,2.3248,8.2008
69.7600,2.3254,8.2014
69.7800,2.3260,8.2003
69.8000,2.3265,8.1986
69.8200,2.3272,8.1972
69.8400,2.3281,8.1978
69.8600,2.3289,8.2000
69.8800,2.3297,8.2027
69.9000,2.3303,8.2047
69.9200,2.3308,8.2047
69.9400,2.3313,8.2032
69.9600,2.3319,8.2008
69.9800,2.3327,8.1994
70.0000,2.3334,8.2002
70.0200,2.3342,8.2024
70.0400,2.3349,8.2046
70.0600,2.3355,8.2058
70.0800,2.3360,8.2054
70.1000,2.3366,8.2040
70.1200,2.3373,8.2026
70.1400,2.3381,8.2026
70.1600,2.3389,8.2042
70.1800,2.3397,8.2065
70.2000,2.3403,8.2082
70.2200,2.3408,8.2081
70.2400,2.3413,8.2064
70.2600,2.3419,8.2044
70.2800,2.3426,8.2031
70.3000,2.3434,8.2035
70.3200,2.3442,8.2056
70.3400,2.3449,8.2082
70.3600,2.3455,8.2096
70.3800,2.3461,8.2095
70.4000,2.3466,8.2082
70.4200,2.3473,8.2065
70.4400,2.3480,8.2061
70.4600,2.3488,8.2073
70.4800,2.3495,8.2091
70.5000,2.3502,8.2107
70.5200,2.3508,8.2111
70.5400,2.3513,8.2100
70.5600,2.3518,8.2083
70.5800,2.3525,8.2065
70.6000,2.3533,8.2066
70.6200,2.3541,8.2086
70.6400,2.3549,8.2112
70.6600,2.3555,8.2130
70.6800,2.3561,8.2134
70.7000,2.3566,8.2123
70.7200,2.3572,8.2107
70.7400,2.3579,8.2092
70.7600,2.3587,8.2093
70.7800,2.3594,8.2110
70.8000,2.3602,8.2132
70.8200,2.3608,8.2146
70.8400,2.3613,8.2147
70.8600,2.3619,8.2135
70.8800,2.3626,8.2119
70.9000,2.3634,8.2112
70.9200,2.3642,8.2126
70.9400,2.3650,8.2153
70.9600,2.3656,8.2176
70.9800,2.3661,8.2184
71.0000,2.3667,8.2173
71.0200,2.3672,8.2150
71.0400,2.3679,8.2130
71.0600,2.3687,8.2127
71.0800,2.3695,8.2143
71.1000,2.3702,8.2169
71.1200,2.3709,8.2187
71.1400,2.3714,8.2191
71.1600,2.3720,8.2183
71.1800,2.3726,8.2166
71.2000,2.3734,8.2157
71.2200,2.3742,8.2170
71.2400,2.3750,8.2197
71.2600,2.3756,8.2220
71.2800,2.3762,8.2223
71.3000,2.3767,8.2209
71.3200,2.3772,8.2189
71.3400,2.3779,8.2169
71.3600,2.3787,8.2164
71.3800,2.3795,8.2180
71.4000,2.3803,8.2204
71.4200,2.3809,8.2228
71.4400,2.3815,8.2238
71.4600,2.3820,8.2228
71.4800,2.3826,8.2208
71.5000,2.3833,8.2194
71.5200,2.3841,8.2202
71.5400,2.3849,8.2223
71.5600,2.3856,8.2241
71.5800,2.3862,8.2249
71.6000,2.3867,8.2242
71.6200,2.3872,8.2224
71.6400,2.3878,8.2204
71.6600,2.3886,8.2196
71.6800,2.3894,8.2208
71.7000,2.3902,8.2231
71.7200,2.3909,8.2255
71.7400,2.3916,8.2271
71.7600,2.3921,8.2269
71.7800,2.3926,8.2250
71.8000,2.3932,8.2229
71.8200,2.3941,8.2223
71.8400,2.3948,8.2235
71.8600,2.3955,8.2256
71.8800,2.3961,8.2271
71.9000,2.3967,8.2274
71.9200,2.3973,8.2265
71.9400,2.3979,8.2247
71.9600,2.3985,8.2231
71.9800,2.3994,8.2230
72.0000,2.4002,8.2249
72.0200,2.4009,8.2278
72.0400,2.4016,8.2301
72.0600,2.4021,8.2306
72.0800,2.4026,8.2292
72.1000,2.4032,8.2265
72.1200,2.4039,8.2252
72.1400,2.4048,8.2260
72.1600,2.4055,8.2281
72.1800,2.4062,8.2305
72.2000,2.4068,8.2317
72.2200,2.4073,8.2312
72.2400,2.4079,8.2298
72.2600,2.4086,8.2282
72.2800,2.4093,8.2275
72.3000,2.4102,8.2288
72.3200,2.4109,8.2315
72.3400,2.4116,8.2336
72.3600,2.4121,8.2344
72.3800,2.4126,8.2333
72.4000,2.4132,8.2310
72.4200,2.4139,8.2291
72.4400,2.4147,8.2293
72.4600,2.4155,8.2315
72.4800,2.4163,8.2342
72.5000,2.4169,8.2360
72.5200,2.4174,8.2362
72.5400,2.4180,8.2348
72.5600,2.4186,8.2330
72.5800,2.4193,8.2321
72.6000,2.4201,8.2331
72.6200,2.4209,8.2352
72.6400,2.4216,8.2371
72.6600,2.4221,8.2377
72.6800,2.4227,8.2369
72.7000,2.4232,8.2351
72.7200,2.4239,8.2333
72.7400,2.4247,8.2329
72.7600,2.4256,8.2346
72.7800,2.4263,8.2373
72.8000,2.4270,8.2397
72.8200,2.4275,8.2404
72.8400,2.4281,8.2393
72.8600,2.4286,8.2373
72.8800,2.4292,8.2353
72.9000,2.4301,8.2350
72.9200,2.4308,8.2365
72.9400,2.4316,8.2386
72.9600,2.4322,8.2402
72.9800,2.4327,8.2405
73.0000,2.4333,8.2395
73.0200,2.4339,8.2377
73.0400,2.4347,8.2365
73.0600,2.4355,8.2375
73.0800,2.4363,8.2400
73.1000,2.4370,8.2426
73.1200,2.4376,8.2438
73.1400,2.4380,8.2430
73.1600,2.4386,8.2407
73.1800,2.4392,8.2381
73.2000,2.4400,8.2371
73.2200,2.4407,8.2384
73.2400,2.4415,8.2405
73.2600,2.4422,8.2425
73.2800,2.4427,8.2436
73.3000,2.4433,8.2431
73.3200,2.4439,8.2414
73.3400,2.4446,8.2398
73.3600,2.4454,8.2402
73.3800,2.4462,8.2424
73.4000,2.4470,8.2449
73.4200,2.4475,8.2464
73.4400,2.4481,8.2458
73.4600,2.4486,8.2440
73.4800,2.4492,8.2416
73.5000,2.4499,8.2404
73.5200,2.4507,8.2410
73.5400,2.4515,8.2432
73.5600,2.4522,8.2457
73.5800,2.4529,8.2474
73.6000,2.4534,8.2473
73.6200,2.4539,8.2457
73.6400,2.4546,8.2439
73.6600,2.4554,8.2440
73.6800,2.4562,8.2457
73.7000,2.4569,8.2478
73.7200,2.4575,8.2492
73.7400,2.4581,8.2492
73.7600,2.4586,8.2481
73.7800,2.4592,8.2461
73.8000,2.4598,8.2443
73.8200,2.4607,8.2443
73.8400,2.4615,8.2464
73.8600,2.4622,8.2492
73.8800,2.4629,8.2512
73.9000,2.4634,8.2516
73.9200,2.4640,8.2503
73.9400,2.4646,8.2484
73.9600,2.4654,8.2475
73.9800,2.4662,8.2485
74.0000,2.4669,8.2505
74.0200,2.4676,8.2523
74.0400,2.4681,8.2528
74.0600,2.4686,8.2518
74.0800,2.4692,8.2501
74.1000,2.4699,8.2482
74.1200,2.4707,8.2481
74.1400,2.4715,8.2497
74.1600,2.4723,8.2525
74.1800,2.4730,8.2548
74.2000,2.4735,8.2554
74.2200,2.4740,8.2543
74.2400,2.4746,8.2521
74.2600,2.4753,8.2502
74.2800,2.4761,8.2503
74.3000,2.4769,8.2523
74.3200,2.4776,8.2547
74.3400,2.4782,8.2559
74.3600,2.4787,8.2554
74.3800,2.4793,8.2539
74.4000,2.4799,8.2521
74.4200,2.4806,8.2511
74.4400,2.4815,8.2523
74.4600,2.4823,8.2551
74.4800,2.4829,8.2577
74.5000,2.4835,8.2583
74.5200,2.4840,8.2569
74.5400,2.4845,8.2545
74.5600,2.4852,8.2527
74.5800,2.4860,8.2524
74.6000,2.4868,8.2541
74.6200,2.4875,8.2565
74.6400,2.4882,8.2583
74.6600,2.4887,8.2586
74.6800,2.4892,8.2573
74.7000,2.4899,8.2554
74.7200,2.4906,8.2543
74.7400,2.4914,8.2548
74.7600,2.4922,8.2570
74.7800,2.4929,8.2593
74.8000,2.4935,8.2603
74.8200,2.4940,8.2596
74.8400,2.4946,8.2577
74.8600,2.4951,8.2559
74.8800,2.4959,8.2553
74.9000,2.4968,8.2568
74.9200,2.4976,8.2596
74.9400,2.4982,8.2619
74.9600,2.4988,8.2628
74.9800,2.4994,8.2622
75.0000,2.5000,8.2606
75.0200,2.5006,8.2588
75.0400,2.5014,8.2582
75.0600,2.5022,8.2597
75.0800,2.5029,8.2620
75.1000,2.5036,8.2635
75.1200,2.5041,8.2636
75.1400,2.5046,8.2625
75.1600,2.5052,8.2604
75.1800,2.5060,8.2593
75.2000,2.5068,8.2601
75.2200,2.5076,8.2625
75.2400,2.5083,8.2652
75.2600,2.5090,8.2667
75.2800,2.5094,8.2666
75.3000,2.5099,8.2647
75.3200,2.5106,8.2623
75.3400,2.5113,8.2610
75.3600,2.5121,8.2618
75.3800,2.5129,8.2640
75.4000,2.5136,8.2661
75.4200,2.5142,8.2671
75.4400,2.5146,8.2666
75.4600,2.5152,8.2646
75.4800,2.5160,8.2630
75.5000,2.5168,8.2634
75.5200,2.5176,8.2655
75.5400,2.5183,8.2680
75.5600,2.5189,8.2693
75.5800,2.5194,8.2687
75.6000,2.5199,8.2671
75.6200,2.5205,8.2649
75.6400,2.5212,8.2633
75.6600,2.5220,8.2638
75.6800,2.5228,8.2658
75.7000,2.5236,8.2684
75.7200,2.5242,8.2701
75.7400,2.5247,8.2702
75.7600,2.5253,8.2687
75.7800,2.5259,8.2669
75.8000,2.5267,8.2663
75.8200,2.5276,8.2678
75.8400,2.5282,8.2700
75.8600,2.5288,8.2712
75.8800,2.5294,8.2709
75.9000,2.5299,8.2695
75.9200,2.5305,8.2677
75.9400,2.5311,8.2661
75.9600,2.5319,8.2659
75.9800,2.5328,8.2676
76.0000,2.5336,8.2700
76.0200,2.5342,8.2721
76.0400,2.5348,8.2727
76.0600,2.5353,8.2716
76.0800,2.5359,8.2698
76.1000,2.5367,8.2688
76.1200,2.5374,8.2693
76.1400,2.5382,8.2710
76.1600,2.5389,8.2728
76.1800,2.5394,8.2737
76.2000,2.5400,8.2733
76.2200,2.5405,8.2719
76.2400,2.5412,8.2702
76.2600,2.5420,8.2695
76.2800,2.5428,8.2707
76.3000,2.5436,8.2730
76.3200,2.5443,8.2753
76.3400,2.5449,8.2765
76.3600,2.5453,8.2757
76.3800,2.5459,8.2738
76.4000,2.5466,8.2719
76.4200,2.5474,8.2718
76.4400,2.5482,8.2734
76.4600,2.5489,8.2755
76.4800,2.5495,8.2771
76.5000,2.5501,8.2773
76.5200,2.5506,8.2762
76.5400,2.5513,8.2745
76.5600,2.5520,8.2738
76.5800,2.5528,8.2748
76.6000,2.5536,8.2771
76.6200,2.5543,8.2792
76.6400,2.5549,8.2798
76.6600,2.5554,8.2788
76.6800,2.5559,8.2768
76.7000,2.5566,8.2749
76.7200,2.5573,8.2742
76.7400,2.5581,8.2754
76.7600,2.5589,8.2776
76.7800,2.5596,8.2795
76.8000,2.5602,8.2801
76.8200,2.5607,8.2793
76.8400,2.5613,8.2776
76.8600,2.5621,8.2764
76.8800,2.5628,8.2768
76.9000,2.5636,8.2785
76.9200,2.5642,8.2804
76.9400,2.5648,8.2813
76.9600,2.5654,8.2808
76.9800,2.5659,8.2793
77.0000,2.5666,8.2775
77.0200,2.5673,8.2765
77.0400,2.5682,8.2776
77.0600,2.5689,8.2800
77.0800,2.5696,8.2820
77.1000,2.5702,8.2828
77.1200,2.5707,8.2822
77.1400,2.5713,8.2804
77.1600,2.5719,8.2787
77.1800,2.5727,8.2782
77.2000,2.5735,8.2793
77.2200,2.5742,8.2812
77.2400,2.5748,8.2827
77.2600,2.5754,8.2832
77.2800,2.5759,8.2821
77.3000,2.5765,8.2803
77.3200,2.5773,8.2791
77.3400,2.5781,8.2800
77.3600,2.5789,8.2822
77.3800,2.5796,8.2846
77.4000,2.5802,8.2860
77.4200,2.5807,8.2857
77.4400,2.5812,8.2837
77.4600,2.5818,8.2814
77.4800,2.5826,8.2801
77.5000,2.5834,8.2809
77.5200,2.5842,8.2830
77.5400,2.5848,8.2851
77.5600,2.5855,8.2862
77.5800,2.5860,8.2856
77.6000,2.5865,8.2838
77.6200,2.5872,8.2822
77.6400,2.5881,8.2822
77.6600,2.5889,8.2845
77.6800,2.5896,8.2875
77.7000,2.5902,8.2889
77.7200,2.5907,8.2884
77.7400,2.5912,8.2865
77.7600,2.5918,8.2845
77.7800,2.5926,8.2832
77.8000,2.5934,8.2837
77.8200,2.5942,8.2860
77.8400,2.5949,8.2887
77.8600,2.5956,8.2904
77.8800,2.5961,8.2903
77.9000,2.5967,8.2887
77.9200,2.5973,8.2868
77.9400,2.5981,8.2861
77.9600,2.5989,8.2878
77.9800,2.5996,8.2901
78.0000,2.6002,8.2915
78.0200,2.6008,8.2913
78.0400,2.6013,8.2898
78.0600,2.6019,8.2878
78.0800,2.6026,8.2863
78.1000,2.6034,8.2864
78.1200,2.6042,8.2882
78.1400,2.6050,8.2908
78.1600,2.6056,8.2930
78.1800,2.6061,8.2935
78.2000,2.6067,8.2923
78.2200,2.6073,8.2901
78.2400,2.6080,8.2888
78.2600,2.6088,8.2893
78.2800,2.6096,8.2911
78.3000,2.6102,8.2927
78.3200,2.6108,8.2933
78.3400,2.6113,8.2925
78.3600,2.6119,8.2910
78.3800,2.6125,8.2891
78.4000,2.6133,8.2885
78.4200,2.6141,8.2896
78.4400,2.6149,8.2919
78.4600,2.6156,8.2942
78.4800,2.6162,8.2956
78.5000,2.6166,8.2948
78.5200,2.6172,8.2923
78.5400,2.6179,8.2901
78.5600,2.6187,8.2899
78.5800,2.6195,8.2916
78.6000,2.6202,8.2937
78.6200,2.6208,8.2950
78.6400,2.6214,8.2951
78.6600,2.6219,8.2938
78.6800,2.6225,8.2919
78.7000,2.6232,8.2906
78.7200,2.6240,8.2910
78.7400,2.6249,8.2931
78.7600,2.6256,8.2957
78.7800,2.6262,8.2973
78.8000,2.6267,8.2973
78.8200,2.6272,8.2954
78.8400,2.6278,8.2930
78.8600,2.6286,8.2921
78.8800,2.6294,8.2935
78.9000,2.6302,8.2959
78.9200,2.6309,8.2982
78.9400,2.6315,8.2991
78.9600,2.6320,8.2980
78.9800,2.6326,8.2960
79.0000,2.6333,8.2946
79.0200,2.6341,8.2949
79.0400,2.6349,8.2968
79.0600,2.6356,8.2990
79.0800,2.6362,8.3003
79.1000,2.6367,8.3001
79.1200,2.6373,8.2988
79.1400,2.6379,8.2967
79.1600,2.6386,8.2953
79.1800,2.6395,8.2959
79.2000,2.6402,8.2982
79.2200,2.6410,8.3008
79.2400,2.6416,8.3022
79.2600,2.6421,8.3022
79.2800,2.6426,8.3005
79.3000,2.6433,8.2985
79.3200,2.6440,8.2973
79.3400,2.6448,8.2980
79.3600,2.6455,8.2997
79.3800,2.6462,8.3018
79.4000,2.6468,8.3028
79.4200,2.6473,8.3021
79.4400,2.6479,8.3005
79.4600,2.6486,8.2990
79.4800,2.6495,8.2991
79.5000,2.6503,8.3011
79.5200,2.6510,8.3036
79.5400,2.6516,8.3051
79.5600,2.6522,8.3051
79.5800,2.6526,8.3033
79.6000,2.6532,8.3006
79.6200,2.6539,8.2985
79.6400,2.6547,8.2987
79.6600,2.6555,8.3005
79.6800,2.6562,8.3028
79.7000,2.6569,8.3044
79.7200,2.6574,8.3044
79.7400,2.6579,8.3030
79.7600,2.6586,8.3012
79.7800,2.6594,8.3006
79.8000,2.6602,8.3021
79.8200,2.6610,8.3046
79.8400,2.6616,8.3066
79.8600,2.6621,8.3068
79.8800,2.6627,8.3054
79.9000,2.6632,8.3029
79.9200,2.6638,8.3007
79.9400,2.6646,8.3002
79.9600,2.6654,8.3017
79.9800,2.6662,8.3040
80.0000,2.6668,8.3059
80.0200,2.6674,8.3064
80.0400,2.6679,8.3054
80.0600,2.6686,8.3036
80.0800,2.6694,8.3027
80.1000,2.6702,8.3036
80.1200,2.6709,8.3058
80.1400,2.6716,8.3076
80.1600,2.6721,8.3085
80.1800,2.6726,8.3075
80.2000,2.6732,8.3056
80.2200,2.6738,8.3037
80.2400,2.6746,8.3029
80.2600,2.6754,8.3039
80.2800,2.6762,8.3066
80.3000,2.6769,8.3093
80.3200,2.6775,8.3106
80.3400,2.6780,8.3097
80.3600,2.6786,8.3075
80.3800,2.6793,8.3059
80.4000,2.6801,8.3062
80.4200,2.6809,8.3079
80.4400,2.6816,8.3098
80.4600,2.6822,8.3110
80.4800,2.6827,8.3107
80.5000,2.6833,8.3093
80.5200,2.6839,8.3073
80.5400,2.6846,8.3062
80.5600,2.6855,8.3071
80.5800,2.6863,8.3096
80.6000,2.6870,8.3124
80.6200,2.6876,8.3138
80.6400,2.6881,8.3133
80.6600,2.6886,8.3113
80.6800,2.6893,8.3090
80.7000,2.6901,8.3082
80.7200,2.6908,8.3094
80.7400,2.6916,8.3116
80.7600,2.6922,8.3134
80.7800,2.6928,8.3135
80.8000,2.6933,8.3122
80.8200,2.6939,8.3103
80.8400,2.6946,8.3087
80.8600,2.6954,8.3089
80.8800,2.6963,8.3113
80.9000,2.6970,8.3141
80.9200,2.6976,8.3156
80.9400,2.6981,8.3150
80.9600,2.6986,8.3129
80.9800,2.6992,8.3102
81.0000,2.7000,8.3088
81.0200,2.7008,8.3098
81.0400,2.7016,8.3124
81.0600,2.7022,8.3146
81.0800,2.7028,8.3154
81.1000,2.7034,8.3145
81.1200,2.7039,8.3125
81.1400,2.7046,8.3108
81.1600,2.7054,8.3106
81.1800,2.7062,8.3124
81.2000,2.7069,8.3146
81.2200,2.7076,8.3160
81.2400,2.7080,8.3159
81.2600,2.7086,8.3142
81.2800,2.7092,8.3118
81.3000,2.7099,8.3102
81.3200,2.7107,8.3107
81.3400,2.7115,8.3130
81.3600,2.7123,8.3158
81.3800,2.7129,8.3174
81.4000,2.7134,8.3173
81.4200,2.7140,8.3159
81.4400,2.7146,8.3140
81.4600,2.7153,8.3129
81.4800,2.7161,8.3137
81.5000,2.7169,8.3159
81.5200,2.7175,8.3176
81.5400,2.7181,8.3181
81.5600,2.7186,8.3173
81.5800,2.7192,8.3155
81.6000,2.7199,8.3138
81.6200,2.7207,8.3136
81.6400,2.7215,8.3155
81.6600,2.7223,8.3183
81.6800,2.7230,8.3205
81.7000,2.7235,8.3212
81.7200,2.7240,8.3200
81.7400,2.7246,8.3178
81.7600,2.7253,8.3160
81.7800,2.7260,8.3158
81.8000,2.7268,8.3174
81.8200,2.7275,8.3197
81.8400,2.7282,8.3213
81.8600,2.7287,8.3213
81.8800,2.7292,8.3198
81.9000,2.7299,8.3179
81.9200,2.7307,8.3170
81.9400,2.7316,8.3183
81.9600,2.7323,8.3208
81.9800,2.7329,8.3231
82.0000,2.7335,8.3237
82.0200,2.7340,8.3225
82.0400,2.7346,8.3203
82.0600,2.7352,8.3183
82.0800,2.7360,8.3179
82.1000,2.7368,8.3194
82.1200,2.7376,8.3216
82.1400,2.7382,8.3236
82.1600,2.7388,8.3242
82.1800,2.7393,8.3233
82.2000,2.7400,8.3214
82.2200,2.7407,8.3202
82.2400,2.7415,8.3210
82.2600,2.7423,8.3230
82.2800,2.7429,8.3246
82.3000,2.7435,8.3251
82.3200,2.7440,8.3240
82.3400,2.7446,8.3220
82.3600,2.7452,8.3199
82.3800,2.7459,8.3188
82.4000,2.7468,8.3199
82.4200,2.7476,8.3223
82.4400,2.7483,8.3247
82.4600,2.7489,8.3261
82.4800,2.7494,8.3256
82.5000,2.7500,8.3241
82.5200,2.7506,8.3223
82.5400,2.7514,8.3216
82.5600,2.7521,8.3228
82.5800,2.7529,8.3244
82.6000,2.7535,8.3255
82.6200,2.7540,8.3254
82.6400,2.7546,8.3240
82.6600,2.7552,8.3221
82.6800,2.7559,8.3208
82.7000,2.7567,8.3211
82.7200,2.7575,8.3229
82.7400,2.7583,8.3254
82.7600,2.7589,8.3273
82.7800,2.7594,8.3275
82.8000,2.7599,8.3260
82.8200,2.7605,8.3237
82.8400,2.7613,8.3223
82.8600,2.7621,8.3233
82.8800,2.7628,8.3252
82.9000,2.7635,8.3270
82.9200,2.7641,8.3277
82.9400,2.7647,8.3271
82.9600,2.7652,8.3256
82.9800,2.7659,8.3241
83.0000,2.7667,8.3241
83.0200,2.7676,8.3257
83.0400,2.7683,8.3280
83.0600,2.7689,8.3295
83.0800,2.7694,8.3295
83.1000,2.7700,8.3280
83.1200,2.7706,8.3258
83.1400,2.7713,8.3243
83.1600,2.7721,8.3248
83.1800,2.7729,8.3268
83.2000,2.7736,8.3290
83.2200,2.7742,8.3302
83.2400,2.7747,8.3299
83.2600,2.7753,8.3285
83.2800,2.7760,8.3269
83.3000,2.7768,8.3266
83.3200,2.7775,8.3277
83.3400,2.7783,8.3295
83.3600,2.7789,8.3312
83.3800,2.7794,8.3315
83.4000,2.7800,8.3303
83.4200,2.7806,8.3284
83.4400,2.7813,8.3265
83.4600,2.7821,8.3266
83.4800,2.7829,8.3286
83.5000,2.7836,8.3310
83.5200,2.7843,8.3325
83.5400,2.7848,8.3324
83.5600,2.7853,8.3307
83.5800,2.7859,8.3288
83.6000,2.7867,8.3278
83.6200,2.7874,8.3283
83.6400,2.7882,8.3298
83.6600,2.7889,8.3316
83.6800,2.7895,8.3325
83.7000,2.7900,8.3319
83.7200,2.7905,8.3301
83.7400,2.7912,8.3280
83.7600,2.7920,8.3276
83.7800,2.7929,8.3296
83.8000,2.7936,8.3323
83.8200,2.7943,8.3341
83.8400,2.7948,8.3345
83.8600,2.7953,8.3328
83.8800,2.7959,8.3306
83.9000,2.7965,8.3287
83.9200,2.7973,8.3284
83.9400,2.7981,8.3298
83.9600,2.7988,8.3320
83.9800,2.7995,8.3335
84.0000,2.8000,8.3338
84.0200,2.8006,8.3326
84.0400,2.8012,8.3306
84.0600,2.8020,8.3294
84.0800,2.8029,8.3305
84.1000,2.8036,8.3333
84.1200,2.8042,8.3356
84.1400,2.8048,8.3357
84.1600,2.8053,8.3342
84.1800,2.8059,8.3321
84.2000,2.8065,8.3304
84.2200,2.8073,8.3299
84.2400,2.8081,8.3315
84.2600,2.8089,8.3340
84.2800,2.8096,8.3360
84.3000,2.8101,8.3367
84.3200,2.8106,8.3357
84.3400,2.8113,8.3337
84.3600,2.8120,8.3324
84.3800,2.8129,8.3331
84.4000,2.8136,8.3353
84.4200,2.8143,8.3373
84.4400,2.8148,8.3377
84.4600,2.8153,8.3368
84.4800,2.8159,8.3350
84.5000,2.8165,8.3333
84.5200,2.8173,8.3325
84.5400,2.8181,8.3334
84.5600,2.8189,8.3358
84.5800,2.8196,8.3382
84.6000,2.8202,8.3395
84.6200,2.8207,8.3392
84.6400,2.8213,8.3372
84.6600,2.8220,8.3350
84.6800,2.8228,8.3348
84.7000,2.8235,8.3364
84.7200,2.8242,8.3383
84.7400,2.8249,8.3393
84.7600,2.8254,8.3390
84.7800,2.8259,8.3376
84.8000,2.8265,8.3359
84.8200,2.8273,8.3349
84.8400,2.8281,8.3355
84.8600,2.8289,8.3373
84.8800,2.8296,8.3396
84.9000,2.8303,8.3413
84.9200,2.8308,8.3413
84.9400,2.8313,8.3392
84.9600,2.8319,8.3366
84.9800,2.8327,8.3355
85.0000,2.8335,8.3366
85.0200,2.8342,8.3387
85.0400,2.8349,8.3403
85.0600,2.8355,8.3410
85.0800,2.8360,8.3401
85.1000,2.8366,8.3381
85.1200,2.8372,8.3363
85.1400,2.8381,8.3361
85.1600,2.8389,8.3375
85.1800,2.8396,8.3397
85.2000,2.8402,8.3417
85.2200,2.8408,8.3421
85.2400,2.8413,8.3405
85.2600,2.8418,8.3377
85.2800,2.8426,8.3360
85.3000,2.8434,8.3363
85.3200,2.8442,8.3385
85.3400,2.8449,8.3407
85.3600,2.8455,8.3419
85.3800,2.8460,8.3415
85.4000,2.8466,8.3399
85.4200,2.8472,8.3380
85.4400,2.8480,8.3373
85.4600,2.8488,8.3383
85.4800,2.8495,8.3403
85.5000,2.8502,8.3419
85.5200,2.8507,8.3424
85.5400,2.8513,8.3417
85.5600,2.8519,8.3400
85.5800,2.8525,8.3384
85.6000,2.8533,8.3380
85.6200,2.8542,8.3396
85.6400,2.8549,8.3422
85.6600,2.8556,8.3443
85.6800,2.8561,8.3450
85.7000,2.8567,8.3437
85.7200,2.8572,8.3416
85.7400,2.8580,8.3400
85.7600,2.8587,8.3400
85.7800,2.8595,8.3415
85.8000,2.8602,8.3435
85.8200,2.8609,8.3449
85.8400,2.8614,8.3450
85.8600,2.8619,8.3435
85.8800,2.8626,8.3417
85.9000,2.8633,8.3410
85.9200,2.8642,8.3422
85.9400,2.8649,8.3446
85.9600,2.8656,8.3468
85.9800,2.8662,8.3476
86.0000,2.8667,8.3464
86.0200,2.8672,8.3442
86.0400,2.8679,8.3419
86.0600,2.8686,8.3412
86.0800,2.8694,8.3425
86.1000,2.8702,8.3445
86.1200,2.8709,8.3464
86.1400,2.8715,8.3471
86.1600,2.8720,8.3461
86.1800,2.8726,8.3442
86.2000,2.8734,8.3430
86.2200,2.8742,8.3438
86.2400,2.8750,8.3461
86.2600,2.8757,8.3482
86.2800,2.8762,8.3492
86.3000,2.8767,8.3482
86.3200,2.8772,8.3459
86.3400,2.8779,8.3434
86.3600,2.8786,8.3422
86.3800,2.8794,8.3430
86.4000,2.8802,8.3449
86.4200,2.8809,8.3471
86.4400,2.8815,8.3483
86.4600,2.8820,8.3475
86.4800,2.8826,8.3456
86.5000,2.8833,8.3440
86.5200,2.8841,8.3441
86.5400,2.8849,8.3459
86.5600,2.8856,8.3479
86.5800,2.8862,8.3491
86.6000,2.8867,8.3486
86.6200,2.8872,8.3469
86.6400,2.8878,8.3446
86.6600,2.8885,8.3428
86.6800,2.8893,8.3430
86.7000,2.8901,8.3448
86.7200,2.8909,8.3475
86.7400,2.8915,8.3495
86.7600,2.8921,8.3499
86.7800,2.8926,8.3481
86.8000,2.8932,8.3458
86.8200,2.8940,8.3450
86.8400,2.8948,8.3462
86.8600,2.8955,8.3484
86.8800,2.8962,8.3500
86.9000,2.8967,8.3503
86.9200,2.8972,8.3490
86.9400,2.8978,8.3471
86.9600,2.8985,8.3454
86.9800,2.8993,8.3452
87.0000,2.9002,8.3471
87.0200,2.9009,8.3497
87.0400,2.9016,8.3518
87.0600,2.9021,8.3524
87.0800,2.9027,8.3511
87.1000,2.9032,8.3490
87.1200,2.9040,8.3474
87.1400,2.9047,8.3475
87.1600,2.9056,8.3492
87.1800,2.9062,8.3513
87.2000,2.9068,8.3522
87.2200,2.9073,8.3514
87.2400,2.9079,8.3497
87.2600,2.9086,8.3478
87.2800,2.9094,8.3471
87.3000,2.9102,8.3487
87.3200,2.9110,8.3516
87.3400,2.9116,8.3539
87.3600,2.9121,8.3540
87.3800,2.9126,8.3523
87.4000,2.9132,8.3497
87.4200,2.9139,8.3480
87.4400,2.9148,8.3482
87.4600,2.9155,8.3503
87.4800,2.9163,8.3528
87.5000,2.9169,8.3543
87.5200,2.9174,8.3541
87.5400,2.9180,8.3523
87.5600,2.9186,8.3504
87.5800,2.9194,8.3497
87.6000,2.9202,8.3507
87.6200,2.9209,8.3528
87.6400,2.9216,8.3546
87.6600,2.9221,8.3548
87.6800,2.9226,8.3534
87.7000,2.9232,8.3510
87.7200,2.9239,8.3488
87.7400,2.9246,8.3484
87.7600,2.9255,8.3500
87.7800,2.9262,8.3527
87.8000,2.9269,8.3549
87.8200,2.9275,8.3553
87.8400,2.9281,8.3542
87.8600,2.9286,8.3523
87.8800,2.9293,8.3509
87.9000,2.9301,8.3510
87.9200,2.9308,8.3525
87.9400,2.9315,8.3542
87.9600,2.9321,8.3549
87.9800,2.9327,8.3542
88.0000,2.9331,8.3524
88.0200,2.9338,8.3503
88.0400,2.9345,8.3493
88.0600,2.9354,8.3500
88.0800,2.9362,8.3521
88.1000,2.9369,8.3548
88.1200,2.9375,8.3564
88.1400,2.9381,8.3562
88.1600,2.9386,8.3545
88.1800,2.9392,8.3521
88.2000,2.9399,8.3509
88.2200,2.9407,8.3517
88.2400,2.9415,8.3537
88.2600,2.9422,8.3554
88.2800,2.9428,8.3560
88.3000,2.9433,8.3551
88.3200,2.9439,8.3534
88.3400,2.9446,8.3518
88.3600,2.9454,8.3520
88.3800,2.9463,8.3541
88.4000,2.9470,8.3569
88.4200,2.9476,8.3585
88.4400,2.9481,8.3582
88.4600,2.9486,8.3561
88.4800,2.9492,8.3537
88.5000,2.9499,8.3524
88.5200,2.9507,8.3528
88.5400,2.9515,8.3546
88.5600,2.9522,8.3567
88.5800,2.9529,8.3582
88.6000,2.9533,8.3581
88.6200,2.9539,8.3564
88.6400,2.9547,8.3547
88.6600,2.9555,8.3548
88.6800,2.9563,8.3567
88.7000,2.9570,8.3589
88.7200,2.9576,8.3599
88.7400,2.9581,8.3592
88.7600,2.9586,8.3574
88.7800,2.9592,8.3553
88.8000,2.9599,8.3538
88.8200,2.9607,8.3540
88.8400,2.9615,8.3556
88.8600,2.9623,8.3580
88.8800,2.9629,8.3597
88.9000,2.9635,8.3599
88.9200,2.9640,8.3584
88.9400,2.9646,8.3566
88.9600,2.9654,8.3559
88.9800,2.9661,8.3564
89.0000,2.9668,8.3576
89.0200,2.9675,8.3588
89.0400,2.9681,8.3593
89.0600,2.9686,8.3585
89.0800,2.9692,8.3568
89.1000,2.9698,8.3550
89.1200,2.9706,8.3546
89.1400,2.9714,8.3559
89.1600,2.9722,8.3582
89.1800,2.9729,8.3606
89.2000,2.9735,8.3616
89.2200,2.9740,8.3604
89.2400,2.9746,8.3582
89.2600,2.9752,8.3561
89.2800,2.9760,8.3557
89.3000,2.9767,8.3572
89.3200,2.9775,8.3589
89.3400,2.9781,8.3599
89.3600,2.9787,8.3597
89.3800,2.9792,8.3584
89.4000,2.9799,8.3568
89.4200,2.9807,8.3561
89.4400,2.9815,8.3573
89.4600,2.9823,8.3593
89.4800,2.9830,8.3614
89.5000,2.9835,8.3624
89.5200,2.9840,8.3613
89.5400,2.9846,8.3591
89.5600,2.9852,8.3569
89.5800,2.9860,8.3561
89.6000,2.9868,8.3577
89.6200,2.9875,8.3598
89.6400,2.9882,8.3615
89.6600,2.9888,8.3619
89.6800,2.9893,8.3609
89.7000,2.9899,8.3592
89.7200,2.9907,8.3582
89.7400,2.9915,8.3589
89.7600,2.9922,8.3606
89.7800,2.9929,8.3621
89.8000,2.9935,8.3628
89.8200,2.9940,8.3623
89.8400,2.9945,8.3606
89.8600,2.9952,8.3585
89.8800,2.9960,8.3577
89.9000,2.9968,8.3589
89.9200,2.9976,8.3613
89.9400,2.9983,8.3633
89.9600,2.9989,8.3642
89.9800,2.9994,8.3634
90.0000,2.9999,8.3616
90.0200,3.0006,8.3597
90.0400,3.0014,8.3594
90.0600,3.0021,8.3605
90.0800,3.0029,8.3623
90.1000,3.0035,8.3638
90.1200,3.0041,8.3639
90.1400,3.0046,8.3626
90.1600,3.0052,8.3606
90.1800,3.0061,8.3596
90.2000,3.0069,8.3606
90.2200,3.0077,8.3631
90.2400,3.0084,8.3654
90.2600,3.0089,8.3663
90.2800,3.0094,8.3651
90.3000,3.0099,8.3626
90.3200,3.0106,8.3602
90.3400,3.0113,8.3592
90.3600,3.0121,8.3602
90.3800,3.0129,8.3621
90.4000,3.0136,8.3640
90.4200,3.0141,8.3647
90.4400,3.0146,8.3637
90.4600,3.0152,8.3620
90.4800,3.0160,8.3605
90.5000,3.0168,8.3610
90.5200,3.0176,8.3632
90.5400,3.0183,8.3655
90.5600,3.0189,8.3663
90.5800,3.0193,8.3652
90.6000,3.0199,8.3630
90.6200,3.0205,8.3609
90.6400,3.0212,8.3595
90.6600,3.0220,8.3598
90.6800,3.0228,8.3617
90.7000,3.0235,8.3639
90.7200,3.0242,8.3654
90.7400,3.0247,8.3654
90.7600,3.0252,8.3639
90.7800,3.0260,8.3620
90.8000,3.0268,8.3617
90.8200,3.0275,8.3634
90.8400,3.0282,8.3654
90.8600,3.0288,8.3664
90.8800,3.0294,8.3657
90.9000,3.0299,8.3641
90.9200,3.0305,8.3622
90.9400,3.0312,8.3607
90.9600,3.0320,8.3611
90.9800,3.0328,8.3628
91.0000,3.0336,8.3652
91.0200,3.0343,8.3672
91.0400,3.0348,8.3677
91.0600,3.0353,8.3661
91.0800,3.0359,8.3639
91.1000,3.0367,8.3626
91.1200,3.0375,8.3633
91.1400,3.0382,8.3652
91.1600,3.0388,8.3668
91.1800,3.0394,8.3671
91.2000,3.0400,8.3663
91.2200,3.0406,8.3646
91.2400,3.0412,8.3630
91.2600,3.0421,8.3627
91.2800,3.0429,8.3642
91.3000,3.0437,8.3666
91.3200,3.0444,8.3690
91.3400,3.0448,8.3700
91.3600,3.0453,8.3685
91.3800,3.0459,8.3656
91.4000,3.0466,8.3636
91.4200,3.0474,8.3637
91.4400,3.0482,8.3657
91.4600,3.0489,8.3681
91.4800,3.0496,8.3690
91.5000,3.0501,8.3685
91.5200,3.0506,8.3667
91.5400,3.0513,8.3649
91.5600,3.0520,8.3641
91.5800,3.0528,8.3651
91.6000,3.0536,8.3671
91.6200,3.0543,8.3690
91.6400,3.0549,8.3697
91.6600,3.0553,8.3687
91.6800,3.0559,8.3664
91.7000,3.0566,8.3641
91.7200,3.0574,8.3636
91.7400,3.0581,8.3651
91.7600,3.0589,8.3675
91.7800,3.0596,8.3692
91.8000,3.0602,8.3697
91.8200,3.0606,8.3686
91.8400,3.0613,8.3666
91.8600,3.0620,8.3651
91.8800,3.0627,8.3651
91.9000,3.0635,8.3665
91.9200,3.0642,8.3683
91.9400,3.0648,8.3692
91.9600,3.0654,8.3687
91.9800,3.0658,8.3671
92.0000,3.0665,8.3652
92.0200,3.0672,8.3638
92.0400,3.0681,8.3644
92.0600,3.0688,8.3668
92.0800,3.0696,8.3693
92.1000,3.0702,8.3706
92.1200,3.0707,8.3702
92.1400,3.0712,8.3686
92.1600,3.0719,8.3665
92.1800,3.0726,8.3652
92.2000,3.0734,8.3658
92.2200,3.0741,8.3675
92.2400,3.0748,8.3692
92.2600,3.0754,8.3702
92.2800,3.0760,8.3695
92.3000,3.0766,8.3678
92.3200,3.0773,8.3663
92.3400,3.0781,8.3667
92.3600,3.0789,8.3686
92.3800,3.0797,8.3709
92.4000,3.0802,8.3724
92.4200,3.0808,8.3721
92.4400,3.0813,8.3700
92.4600,3.0819,8.3675
92.4800,3.0826,8.3660
92.5000,3.0834,8.3663
92.5200,3.0842,8.3682
92.5400,3.0849,8.3703
92.5600,3.0856,8.3719
92.5800,3.0860,8.3718
92.6000,3.0866,8.3701
92.6200,3.0873,8.3684
92.6400,3.0881,8.3680
92.6600,3.0889,8.3697
92.6800,3.0897,8.3721
92.7000,3.0903,8.3734
92.7200,3.0908,8.3731
92.7400,3.0913,8.3713
92.7600,3.0919,8.3689
92.7800,3.0926,8.3669
92.8000,3.0934,8.3668
92.8200,3.0942,8.3687
92.8400,3.0950,8.3712
92.8600,3.0956,8.3731
92.8800,3.0961,8.3734
92.9000,3.0966,8.3716
92.9200,3.0973,8.3696
92.9400,3.0981,8.3686
92.9600,3.0989,8.3697
92.9800,3.0996,8.3718
93.0000,3.1003,8.3732
93.0200,3.1008,8.3732
93.0400,3.1013,8.3717
93.0600,3.1019,8.3696
93.0800,3.1025,8.3676
93.1000,3.1033,8.3670
93.1200,3.1041,8.3682
93.1400,3.1049,8.3705
93.1600,3.1056,8.3729
93.1800,3.1061,8.3738
93.2000,3.1067,8.3724
93.2200,3.1072,8.3698
93.2400,3.1079,8.3679
93.2600,3.1087,8.3681
93.2800,3.1095,8.3698
93.3000,3.1102,8.3716
93.3200,3.1108,8.3726
93.3400,3.1113,8.3720
93.3600,3.1119,8.3702
93.3800,3.1125,8.3683
93.4000,3.1132,8.3674
93.4200,3.1141,8.3685
93.4400,3.1149,8.3707
93.4600,3.1156,8.3729
93.4800,3.1161,8.3740
93.5000,3.1167,8.3732
93.5200,3.1172,8.3714
93.5400,3.1179,8.3690
93.5600,3.1187,8.3683
93.5800,3.1195,8.3696
93.6000,3.1202,8.3719
93.6200,3.1209,8.3737
93.6400,3.1214,8.3740
93.6600,3.1219,8.3727
93.6800,3.1225,8.3707
93.7000,3.1233,8.3691
93.7200,3.1241,8.3694
93.7400,3.1249,8.3718
93.7600,3.1256,8.3746
93.7800,3.1262,8.3755
93.8000,3.1267,8.3747
93.8200,3.1272,8.3726
93.8400,3.1279,8.3702
93.8600,3.1287,8.3694
93.8800,3.1295,8.3708
93.9000,3.1303,8.3734
93.9200,3.1309,8.3756
93.9400,3.1315,8.3762
93.9600,3.1321,8.3752
93.9800,3.1326,8.3731
94.0000,3.1333,8.3715
94.0200,3.1341,8.3714
94.0400,3.1349,8.3732
94.0600,3.1356,8.3753
94.0800,3.1362,8.3763
94.1000,3.1368,8.3757
94.1200,3.1372,8.3740
94.1400,3.1379,8.3719
94.1600,3.1386,8.3706
94.1800,3.1395,8.3715
94.2000,3.1403,8.3740
94.2200,3.1410,8.3765
94.2400,3.1416,8.3776
94.2600,3.1421,8.3769
94.2800,3.1427,8.3750
94.3000,3.1432,8.3726
94.3200,3.1440,8.3712
94.3400,3.1449,8.3720
94.3600,3.1456,8.3741
94.3800,3.1462,8.3758
94.4000,3.1468,8.3761
94.4200,3.1473,8.3751
94.4400,3.1479,8.3731
94.4600,3.1486,8.3713
94.4800,3.1494,8.3711
94.5000,3.1502,8.3729
94.5200,3.1510,8.3753
94.5400,3.1516,8.3770
94.5600,3.1521,8.3769
94.5800,3.1526,8.3750
94.6000,3.1532,8.3726
94.6200,3.1539,8.3706
94.6400,3.1547,8.3705
94.6600,3.1555,8.3722
94.6800,3.1562,8.3742
94.7000,3.1568,8.3756
94.7200,3.1573,8.3755
94.7400,3.1579,8.3739
94.7600,3.1585,8.3719
94.7800,3.1593,8.3711
94.8000,3.1601,8.3724
94.8200,3.1609,8.3746
94.8400,3.1616,8.3765
94.8600,3.1621,8.3769
94.8800,3.1626,8.3756
94.9000,3.1632,8.3735
94.9200,3.1639,8.3717
94.9400,3.1647,8.3715
94.9600,3.1655,8.3731
94.9800,3.1662,8.3756
95.0000,3.1669,8.3775
95.0200,3.1675,8.3778
95.0400,3.1680,8.3765
95.0600,3.1686,8.3744
95.0800,3.1694,8.3733
95.1000,3.1701,8.3741
95.1200,3.1709,8.3758
95.1400,3.1715,8.3772
95.1600,3.1721,8.3775
95.1800,3.1726,8.3766
95.2000,3.1732,8.3747
95.2200,3.1739,8.3729
95.2400,3.1746,8.3724
95.2600,3.1755,8.3738
95.2800,3.1762,8.3763
95.3000,3.1769,8.3784
95.3200,3.1775,8.3793
95.3400,3.1781,8.3781
95.3600,3.1786,8.3760
95.3800,3.1793,8.3743
95.4000,3.1801,8.3742
95.4200,3.1809,8.3755
95.4400,3.1816,8.3771
95.4600,3.1822,8.3784
95.4800,3.1827,8.3782
95.5000,3.1833,8.3767
95.5200,3.1839,8.3748
95.5400,3.1847,8.3736
95.5600,3.1855,8.3742
95.5800,3.1863,8.3762
95.6000,3.1870,8.3785
95.6200,3.1876,8.3796
95.6400,3.1881,8.3791
95.6600,3.1886,8.3769
95.6800,3.1893,8.3743
95.7000,3.1900,8.3732
95.7200,3.1908,8.3743
95.7400,3.1916,8.3766
95.7600,3.1922,8.3782
95.7800,3.1928,8.3787
95.8000,3.1933,8.3778
95.8200,3.1939,8.3761
95.8400,3.1946,8.3744
95.8600,3.1954,8.3743
95.8800,3.1962,8.3759
95.9000,3.1969,8.3779
95.9200,3.1975,8.3788
95.9400,3.1981,8.3781
95.9600,3.1986,8.3760
95.9800,3.1992,8.3737
96.0000,3.1999,8.3724
96.0200,3.2007,8.3731
96.0400,3.2015,8.3751
96.0600,3.2022,8.3772
96.0800,3.2028,8.3781
96.1000,3.2033,8.3776
96.1200,3.2039,8.3759
96.1400,3.2046,8.3743
96.1600,3.2054,8.3739
96.1800,3.2061,8.3751
96.2000,3.2068,8.3768
96.2200,3.2075,8.3781
96.2400,3.2081,8.3781
96.2600,3.2086,8.3767
96.2800,3.2091,8.3748
96.3000,3.2099,8.3732
96.3200,3.2107,8.3735
96.3400,3.2116,8.3756
96.3600,3.2122,8.3782
96.3800,3.2129,8.3794
96.4000,3.2134,8.3789
96.4200,3.2140,8.3772
96.4400,3.2146,8.3751
96.4600,3.2153,8.3738
96.4800,3.2161,8.3745
96.5000,3.2169,8.3764
96.5200,3.2176,8.3780
96.5400,3.2181,8.3789
96.5600,3.2186,8.3783
96.5800,3.2192,8.3765
96.6000,3.2200,8.3747
96.6200,3.2208,8.3748
96.6400,3.2216,8.3769
96.6600,3.2223,8.3792
96.6800,3.2230,8.3807
96.7000,3.2234,8.3805
96.7200,3.2240,8.3787
96.7400,3.2246,8.3764
96.7600,3.2253,8.3746
96.7800,3.2261,8.3746
96.8000,3.2269,8.3766
96.8200,3.2276,8.3788
96.8400,3.2282,8.3800
96.8600,3.2287,8.3798
96.8800,3.2293,8.3780
96.9000,3.2299,8.3759
96.9200,3.2308,8.3754
96.9400,3.2316,8.3770
96.9600,3.2323,8.3796
96.9800,3.2329,8.3809
97.0000,3.2335,8.3803
97.0200,3.2339,8.3785
97.0400,3.2345,8.3763
97.0600,3.2352,8.3746
97.0800,3.2360,8.3743
97.1000,3.2368,8.3760
97.1200,3.2376,8.3785
97.1400,3.2382,8.3804
97.1600,3.2388,8.3806
97.1800,3.2393,8.3793
97.2000,3.2399,8.3769
97.2200,3.2407,8.3756
97.2400,3.2415,8.3766
97.2600,3.2422,8.3786
97.2800,3.2428,8.3801
97.3000,3.2434,8.3803
97.3200,3.2439,8.3791
97.3400,3.2445,8.3770
97.3600,3.2451,8.3752
97.3800,3.2459,8.3747
97.4000,3.2467,8.3760
97.4200,3.2476,8.3784
97.4400,3.2482,8.3808
97.4600,3.2488,8.3816
97.4800,3.2493,8.3806
97.5000,3.2499,8.3781
97.5200,3.2506,8.3762
97.5400,3.2514,8.3759
97.5600,3.2522,8.3773
97.5800,3.2529,8.3792
97.6000,3.2535,8.3801
97.6200,3.2540,8.3798
97.6400,3.2546,8.3785
97.6600,3.2552,8.3767
97.6800,3.2559,8.3758
97.7000,3.2568,8.3764
97.7200,3.2576,8.3784
97.7400,3.2583,8.3806
97.7600,3.2589,8.3822
97.7800,3.2594,8.3816
97.8000,3.2599,8.3793
97.8200,3.2606,8.3769
97.8400,3.2614,8.3760
97.8600,3.2621,8.3772
97.8800,3.2629,8.3793
97.9000,3.2636,8.3811
97.9200,3.2641,8.3816
97.9400,3.2647,8.3806
97.9600,3.2652,8.3787
97.9800,3.2659,8.3771
98.0000,3.2667,8.3769
98.0200,3.2676,8.3784
98.0400,3.2683,8.3807
98.0600,3.2689,8.3822
98.0800,3.2694,8.3821
98.1000,3.2699,8.3803
98.1200,3.2705,8.3778
98.1400,3.2713,8.3763
98.1600,3.2721,8.3772
98.1800,3.2729,8.3794
98.2000,3.2736,8.3817
98.2200,3.2742,8.3827
98.2400,3.2748,8.3818
98.2600,3.2753,8.3799
98.2800,3.2759,8.3780
98.3000,3.2767,8.3774
98.3200,3.2776,8.3784
98.3400,3.2782,8.3803
98.3600,3.2789,8.3814
98.3800,3.2794,8.3815
98.4000,3.2800,8.3802
98.4200,3.2806,8.3783
98.4400,3.2812,8.3765
98.4600,3.2821,8.3765
98.4800,3.2829,8.3784
98.5000,3.2836,8.3808
98.5200,3.2842,8.3823
98.5400,3.2848,8.3823
98.5600,3.2853,8.3804
98.5800,3.2859,8.3778
98.6000,3.2866,8.3762
98.6200,3.2874,8.3763
98.6400,3.2881,8.3777
98.6600,3.2888,8.3797
98.6800,3.2894,8.3811
98.7000,3.2900,8.3808
98.7200,3.2906,8.3792
98.7400,3.2912,8.3774
98.7600,3.2920,8.3766
98.7800,3.2928,8.3780
98.8000,3.2936,8.3804
98.8200,3.2943,8.3823
98.8400,3.2948,8.3828
98.8600,3.2953,8.3815
98.8800,3.2959,8.3787
98.9000,3.2965,8.3765
98.9200,3.2973,8.3758
98.9400,3.2981,8.3770
98.9600,3.2988,8.3791
98.9800,3.2995,8.3810
99.0000,3.3001,8.3817
99.0200,3.3006,8.3805
99.0400,3.3012,8.3786
99.0600,3.3020,8.3774
99.0800,3.3028,8.3784
99.1000,3.3036,8.3806
99.1200,3.3043,8.3827
99.1400,3.3049,8.3833
99.1600,3.3054,8.3820
99.1800,3.3059,8.3796
99.2000,3.3065,8.3773
99.2200,3.3073,8.3764
99.2400,3.3081,8.3774
99.2600,3.3089,8.3796
99.2800,3.3096,8.3820
99.3000,3.3102,8.3830
99.3200,3.3107,8.3820
99.3400,3.3112,8.3797
99.3600,3.3120,8.3780
99.3800,3.3129,8.3784
99.4000,3.3136,8.3804
99.4200,3.3143,8.3824
99.4400,3.3148,8.3832
99.4600,3.3154,8.3823
99.4800,3.3159,8.3803
99.5000,3.3165,8.3782
99.5200,3.3172,8.3767
99.5400,3.3181,8.3770
99.5600,3.3189,8.3790
99.5800,3.3196,8.3814
99.6000,3.3202,8.3830
99.6200,3.3207,8.3827
99.6400,3.3213,8.3807
99.6600,3.3220,8.3786
99.6800,3.3228,8.3779
99.7000,3.3235,8.3791
99.7200,3.3243,8.3810
99.7400,3.3249,8.3821
99.7600,3.3254,8.3819
99.7800,3.3260,8.3804
99.8000,3.3265,8.3784
99.8200,3.3273,8.3767
99.8400,3.3281,8.3767
99.8600,3.3289,8.3786
99.8800,3.3296,8.3810
99.9000,3.3303,8.3826
99.9200,3.3307,8.3825
99.9400,3.3313,8.3808
99.9600,3.3319,8.3786
99.9800,3.3326,8.3769
100.0000,3.3334,8.3773
100.0200,3.3342,8.3792
100.0400,3.3349,8.3809
100.0600,3.3355,8.3816
100.0800,3.3359,8.3809
100.1000,3.3365,8.3790
100.1200,3.3372,8.3769
100.1400,3.3380,8.3762
100.1600,3.3388,8.3777
100.1800,3.3396,8.3805
100.2000,3.3402,8.3824
100.2200,3.3407,8.3823
100.2400,3.3412,8.3805
100.2600,3.3418,8.3781
100.2800,3.3425,8.3761
100.3000,3.3434,8.3766
100.3200,3.3442,8.3788
100.3400,3.3449,8.3813
100.3600,3.3455,8.3828
100.3800,3.3461,8.3823
100.4000,3.3467,8.3807
100.4200,3.3472,8.3787
100.4400,3.3481,8.3777
100.4600,3.3489,8.3786
100.4800,3.3496,8.3806
100.5000,3.3502,8.3823
100.5200,3.3508,8.3826
100.5400,3.3513,8.3814
100.5600,3.3519,8.3791
100.5800,3.3526,8.3772
100.6000,3.3534,8.3771
100.6200,3.3543,8.3790
100.6400,3.3550,8.3818
100.6600,3.3556,8.3837
100.6800,3.3562,8.3836
100.7000,3.3567,8.3822
100.7200,3.3573,8.3800
100.7400,3.3580,8.3782
100.7600,3.3588,8.3784
100.7800,3.3596,8.3801
100.8000,3.3602,8.3818
100.8200,3.3609,8.3825
100.8400,3.3613,8.3817
100.8600,3.3619,8.3798
100.8800,3.3626,8.3778
100.9000,3.3633,8.3770
100.9200,3.3642,8.3779
100.9400,3.3650,8.3804
100.9600,3.3657,8.3828
100.9800,3.3662,8.3836
101.0000,3.3667,8.3825
101.0200,3.3672,8.3803
101.0400,3.3679,8.3778
101.0600,3.3687,8.3768
101.0800,3.3695,8.3778
101.1000,3.3702,8.3801
101.1200,3.3709,8.3818
101.1400,3.3714,8.3822
101.1600,3.3719,8.3809
101.1800,3.3725,8.3788
101.2000,3.3733,8.3772
101.2200,3.3741,8.3775
101.2400,3.3749,8.3794
101.2600,3.3756,8.3817
101.2800,3.3762,8.3828
101.3000,3.3767,8.3817
101.3200,3.3772,8.3795
101.3400,3.3778,8.3772
101.3600,3.3786,8.3761
101.3800,3.3794,8.3766
101.4000,3.3801,8.3786
101.4200,3.3808,8.3806
101.4400,3.3815,8.3815
101.4600,3.3820,8.3809
101.4800,3.3826,8.3791
101.5000,3.3832,8.3773
101.5200,3.3841,8.3773
101.5400,3.3849,8.3791
101.5600,3.3856,8.3810
101.5800,3.3861,8.3817
101.6000,3.3867,8.3812
101.6200,3.3872,8.3797
101.6400,3.3878,8.3777
101.6600,3.3886,8.3762
101.6800,3.3894,8.3763
101.7000,3.3902,8.3781
101.7200,3.3909,8.3805
101.7400,3.3916,8.3823
101.7600,3.3921,8.3822
101.7800,3.3927,8.3806
101.8000,3.3933,8.3788
101.8200,3.3940,8.3779
101.8400,3.3948,8.3783
101.8600,3.3956,8.3799
101.8800,3.3962,8.3815
101.9000,3.3967,8.3820
101.9200,3.3973,8.3808
101.9400,3.3979,8.3788
101.9600,3.3986,8.3770
101.9800,3.3994,8.3768
102.0000,3.4002,8.3786
102.0200,3.4010,8.3810
102.0400,3.4016,8.3829
102.0600,3.4022,8.3831
102.0800,3.4026,8.3815
102.1000,3.4032,8.3791
102.1200,3.4040,8.3772
102.1400,3.4048,8.3772
102.1600,3.4055,8.3788
102.1800,3.4062,8.3809
102.2000,3.4069,8.3820
102.2200,3.4074,8.3815
102.2400,3.4079,8.3797
102.2600,3.4086,8.3779
102.2800,3.4094,8.3774
102.3000,3.4102,8.3785
102.3200,3.4110,8.3804
102.3400,3.4116,8.3820
102.3600,3.4121,8.3822
102.3800,3.4127,8.3807
102.4000,3.4132,8.3785
102.4200,3.4139,8.3765
102.4400,3.4147,8.3762
102.4600,3.4155,8.3777
102.4800,3.4162,8.3797
102.5000,3.4169,8.3813
102.5200,3.4175,8.3816
102.5400,3.4180,8.3803
102.5600,3.4186,8.3784
102.5800,3.4194,8.3772
102.6000,3.4202,8.3779
102.6200,3.4209,8.3796
102.6400,3.4216,8.3809
102.6600,3.4221,8.3812
102.6800,3.4226,8.3800
102.7000,3.4232,8.3780
102.7200,3.4239,8.3760
102.7400,3.4247,8.3753
102.7600,3.4255,8.3766
102.7800,3.4262,8.3788
102.8000,3.4269,8.3805
102.8200,3.4274,8.3809
102.8400,3.4280,8.3798
102.8600,3.4286,8.3780
102.8800,3.4292,8.3763
102.9000,3.4300,8.3760
102.9200,3.4308,8.3773
102.9400,3.4315,8.3792
102.9600,3.4322,8.3804
102.9800,3.4327,8.3803
103.0000,3.4332,8.3787
103.0200,3.4339,8.3766
103.0400,3.4347,8.3757
103.0600,3.4355,8.3768
103.0800,3.4363,8.3793
103.1000,3.4370,8.3815
103.1200,3.4375,8.3824
103.1400,3.4380,8.3814
103.1600,3.4386,8.3791
103.1800,3.4392,8.3765
103.2000,3.4400,8.3756
103.2200,3.4408,8.3767
103.2400,3.4415,8.3788
103.2600,3.4422,8.3807
103.2800,3.4428,8.3812
103.3000,3.4433,8.3802
103.3200,3.4439,8.3784
103.3400,3.4447,8.3768
103.3600,3.4456,8.3772
103.3800,3.4464,8.3794
103.4000,3.4469,8.3817
103.4200,3.4475,8.3821
103.4400,3.4480,8.3808
103.4600,3.4486,8.3787
103.4800,3.4492,8.3765
103.5000,3.4499,8.3754
103.5200,3.4508,8.3762
103.5400,3.4516,8.3783
103.5600,3.4523,8.3805
103.5800,3.4529,8.3815
103.6000,3.4534,8.3809
103.6200,3.4540,8.3787
103.6400,3.4547,8.3767
103.6600,3.4555,8.3768
103.6800,3.4563,8.3786
103.7000,3.4570,8.3806
103.7200,3.4575,8.3812
103.7400,3.4581,8.3802
103.7600,3.4586,8.3784
103.7800,3.4592,8.3764
103.8000,3.4599,8.3749
103.8200,3.4608,8.3753
103.8400,3.4616,8.3771
103.8600,3.4623,8.3796
103.8800,3.4629,8.3810
103.9000,3.4634,8.3806
103.9200,3.4640,8.3787
103.9400,3.4646,8.3764
103.9600,3.4654,8.3753
103.9800,3.4662,8.3764
104.0000,3.4669,8.3781
104.0200,3.4675,8.3792
104.0400,3.4681,8.3791
104.0600,3.4686,8.3777
104.0800,3.4692,8.3758
104.1000,3.4699,8.3742
104.1200,3.4706,8.3739
104.1400,3.4715,8.3751
104.1600,3.4722,8.3773
104.1800,3.4729,8.3795
104.2000,3.4735,8.3802
104.2200,3.4739,8.3788
104.2400,3.4745,8.3760
104.2600,3.4752,8.3738
104.2800,3.4760,8.3740
104.3000,3.4768,8.3760
104.3200,3.4775,8.3782
104.3400,3.4782,8.3792
104.3600,3.4787,8.3787
104.3800,3.4792,8.3769
104.4000,3.4799,8.3750
104.4200,3.4806,8.3741
104.4400,3.4814,8.3749
104.4600,3.4822,8.3770
104.4800,3.4829,8.3792
104.5000,3.4835,8.3802
104.5200,3.4840,8.3793
104.5400,3.4846,8.3768
104.5600,3.4852,8.3746
104.5800,3.4861,8.3741
104.6000,3.4869,8.3758
104.6200,3.4876,8.3784
104.6400,3.4882,8.3800
104.6600,3.4888,8.3798
104.6800,3.4893,8.3783
104.7000,3.4899,8.3765
104.7200,3.4907,8.3751
104.7400,3.4915,8.3756
104.7600,3.4923,8.3775
104.7800,3.4929,8.3791
104.8000,3.4935,8.3797
104.8200,3.4940,8.3789
104.8400,3.4946,8.3769
104.8600,3.4952,8.3747
104.8800,3.4960,8.3737
104.9000,3.4968,8.3750
104.9200,3.4976,8.3772
104.9400,3.4983,8.3792
104.9600,3.4989,8.3801
104.9800,3.4994,8.3793
105.0000,3.5000,8.3773
105.0200,3.5006,8.3752
105.0400,3.5014,8.3741
105.0600,3.5021,8.3749
105.0800,3.5029,8.3765
105.1000,3.5035,8.3780
105.1200,3.5041,8.3784
105.1400,3.5046,8.3770
105.1600,3.5052,8.3750
105.1800,3.5060,8.3734
105.2000,3.5068,8.3738
105.2200,3.5076,8.3757
105.2400,3.5083,8.3779
105.2600,3.5089,8.3792
105.2800,3.5094,8.3786
105.3000,3.5099,8.3764
105.3200,3.5105,8.3736
105.3400,3.5112,8.3721
105.3600,3.5120,8.3726
105.3800,3.5128,8.3744
105.4000,3.5135,8.3763
105.4200,3.5141,8.3774
105.4400,3.5147,8.3769
105.4600,3.5152,8.3750
105.4800,3.5159,8.3731
105.5000,3.5167,8.3728
105.5200,3.5176,8.3747
105.5400,3.5183,8.3771
105.5600,3.5189,8.3786
105.5800,3.5194,8.3784
105.6000,3.5199,8.3762
105.6200,3.5205,8.3736
105.6400,3.5212,8.3719
105.6600,3.5220,8.3720
105.6800,3.5228,8.3737
105.7000,3.5236,8.3761
105.7200,3.5242,8.3778
105.7400,3.5247,8.3779
105.7600,3.5253,8.3761
105.7800,3.5260,8.3738
105.8000,3.5268,8.3730
105.8200,3.5276,8.3744
105.8400,3.5283,8.3766
105.8600,3.5289,8.3780
105.8800,3.5294,8.3778
105.9000,3.5300,8.3763
105.9200,3.5305,8.3741
105.9400,3.5312,8.3718
105.9600,3.5320,8.3713
105.9800,3.5328,8.3730
106.0000,3.5336,8.3754
106.0200,3.5343,8.3775
106.0400,3.5348,8.3782
106.0600,3.5353,8.3766
106.0800,3.5359,8.3741
106.1000,3.5367,8.3727
106.1200,3.5375,8.3733
106.1400,3.5382,8.3750
106.1600,3.5389,8.3766
106.1800,3.5395,8.3770
106.2000,3.5400,8.3761
106.2200,3.5406,8.3743
106.2400,3.5412,8.3722
106.2600,3.5420,8.3713
106.2800,3.5428,8.3725
106.3000,3.5436,8.3750
106.3200,3.5443,8.3772
106.3400,3.5449,8.3777
106.3600,3.5454,8.3765
106.3800,3.5459,8.3742
106.4000,3.5466,8.3721
106.4200,3.5474,8.3717
106.4400,3.5482,8.3731
106.4600,3.5489,8.3749
106.4800,3.5495,8.3760
106.5000,3.5501,8.3755
106.5200,3.5506,8.3738
106.5400,3.5512,8.3716
106.5600,3.5519,8.3702
106.5800,3.5528,8.3708
106.6000,3.5536,8.3733
106.6200,3.5543,8.3758
106.6400,3.5548,8.3764
106.6600,3.5553,8.3749
106.6800,3.5559,8.3725
106.7000,3.5565,8.3703
106.7200,3.5573,8.3694
106.7400,3.5581,8.3706
106.7600,3.5589,8.3729
106.7800,3.5595,8.3746
106.8000,3.5601,8.3746
106.8200,3.5606,8.3734
106.8400,3.5612,8.3715
106.8600,3.5619,8.3701
106.8800,3.5628,8.3703
106.9000,3.5636,8.3721
106.9200,3.5643,8.3741
106.9400,3.5649,8.3749
106.9600,3.5653,8.3742
106.9800,3.5658,8.3723
107.0000,3.5665,8.3699
107.0200,3.5673,8.3687
107.0400,3.5681,8.3694
107.0600,3.5689,8.3718
107.0800,3.5696,8.3743
107.1000,3.5702,8.3754
107.1200,3.5707,8.3744
107.1400,3.5713,8.3724
107.1600,3.5720,8.3706
107.1800,3.5727,8.3699
107.2000,3.5735,8.3708
107.2200,3.5742,8.3726
107.2400,3.5749,8.3740
107.2600,3.5754,8.3741
107.2800,3.5759,8.3726
107.3000,3.5765,8.3705
107.3200,3.5772,8.3690
107.3400,3.5781,8.3690
107.3600,3.5789,8.3709
107.3800,3.5796,8.3734
107.4000,3.5803,8.3751
107.4200,3.5808,8.3751
107.4400,3.5813,8.3732
107.4600,3.5819,8.3706
107.4800,3.5826,8.3690
107.5000,3.5834,8.3694
107.5200,3.5842,8.3710
107.5400,3.5849,8.3729
107.5600,3.5855,8.3737
107.5800,3.5860,8.3729
107.6000,3.5866,8.3710
107.6200,3.5872,8.3691
107.6400,3.5881,8.3685
107.6600,3.5889,8.3698
107.6800,3.5897,8.3720
107.7000,3.5902,8.3736
107.7200,3.5907,8.3734
107.7400,3.5913,8.3715
107.7600,3.5919,8.3693
107.7800,3.5926,8.3675
107.8000,3.5934,8.3673
107.8200,3.5942,8.3688
107.8400,3.5949,8.3710
107.8600,3.5956,8.3724
107.8800,3.5961,8.3723
107.9000,3.5966,8.3709
107.9200,3.5973,8.3687
107.9400,3.5981,8.3676
107.9600,3.5988,8.3688
107.9800,3.5996,8.3705
108.0000,3.6002,8.3717
108.0200,3.6007,8.3715
108.0400,3.6012,8.3700
108.0600,3.6018,8.3679
108.0800,3.6025,8.3660
108.1000,3.6032,8.3653
108.1200,3.6041,8.3666
108.1400,3.6049,8.3689
108.1600,3.6056,8.3711
108.1800,3.6061,8.3720
108.2000,3.6067,8.3712
108.2200,3.6072,8.3692
108.2400,3.6080,8.3675
108.2600,3.6087,8.3674
108.2800,3.6095,8.3685
108.3000,3.6102,8.3700
108.3200,3.6108,8.3711
108.3400,3.6114,8.3706
108.3600,3.6119,8.3689
108.3800,3.6125,8.3669
108.4000,3.6133,8.3658
108.4200,3.6141,8.3666
108.4400,3.6149,8.3687
108.4600,3.6156,8.3709
108.4800,3.6162,8.3724
108.5000,3.6167,8.3717
108.5200,3.6173,8.3696
108.5400,3.6179,8.3674
108.5600,3.6187,8.3665
108.5800,3.6195,8.3675
108.6000,3.6202,8.3693
108.6200,3.6209,8.3708
108.6400,3.6214,8.3711
108.6600,3.6220,8.3699
108.6800,3.6226,8.3681
108.7000,3.6234,8.3666
108.7200,3.6242,8.3670
108.7400,3.6250,8.3689
108.7600,3.6257,8.3710
108.7800,3.6262,8.3719
108.8000,3.6267,8.3709
108.8200,3.6273,8.3688
108.8400,3.6279,8.3667
108.8600,3.6287,8.3655
108.8800,3.6295,8.3662
108.9000,3.6302,8.3683
108.9200,3.6309,8.3700
108.9400,3.6315,8.3704
108.9600,3.6320,8.3692
108.9800,3.6326,8.3671
109.0000,3.6334,8.3658
109.0200,3.6341,8.3660
109.0400,3.6349,8.3673
109.0600,3.6356,8.3688
109.0800,3.6362,8.3696
109.1000,3.6367,8.3692
109.1200,3.6373,8.3674
109.1400,3.6379,8.3653
109.1600,3.6386,8.3639
109.1800,3.6394,8.3644
109.2000,3.6402,8.3665
109.2200,3.6409,8.3686
109.2400,3.6415,8.3694
109.2600,3.6421,8.3685
109.2800,3.6426,8.3667
109.3000,3.6432,8.3648
109.3200,3.6440,8.3636
109.3400,3.6447,8.3641
109.3600,3.6455,8.3656
109.3800,3.6461,8.3670
109.4000,3.6467,8.3672
109.4200,3.6472,8.3662
109.4400,3.6478,8.3645
109.4600,3.6485,8.3626
109.4800,3.6494,8.3625
109.5000,3.6502,8.3643
109.5200,3.6509,8.3668
109.5400,3.6516,8.3684
109.5600,3.6521,8.3681
109.5800,3.6526,8.3662
109.6000,3.6531,8.3637
109.6200,3.6539,8.3618
109.6400,3.6547,8.3619
109.6600,3.6555,8.3637
109.6800,3.6562,8.3659
109.7000,3.6568,8.3668
109.7200,3.6573,8.3663
109.7400,3.6579,8.3648
109.7600,3.6586,8.3629
109.7800,3.6595,8.3625
109.8000,3.6603,8.3641
109.8200,3.6610,8.3667
109.8400,3.6616,8.3680
109.8600,3.6621,8.3674
109.8800,3.6626,8.3655
109.9000,3.6632,8.3630
109.9200,3.6639,8.3608
109.9400,3.6647,8.3606
109.9600,3.6655,8.3625
109.9800,3.6663,8.3649
110.0000,3.6669,8.3666
110.0200,3.6674,8.3666
110.0400,3.6680,8.3650
110.0600,3.6686,8.3626
110.0800,3.6694,8.3616
110.1000,3.6702,8.3630
110.1200,3.6710,8.3651
110.1400,3.6716,8.3662
110.1600,3.6721,8.3658
110.1800,3.6726,8.3643
110.2000,3.6732,8.3622
110.2200,3.6739,8.3603
110.2400,3.6747,8.3596
110.2600,3.6755,8.3609
110.2800,3.6763,8.3634
110.3000,3.6770,8.3654
110.3200,3.6775,8.3660
110.3400,3.6781,8.3647
110.3600,3.6786,8.3622
110.3800,3.6793,8.3601
110.4000,3.6801,8.3602
110.4200,3.6809,8.3616
110.4400,3.6815,8.3632
110.4600,3.6822,8.3639
110.4800,3.6827,8.3631
110.5000,3.6832,8.3613
110.5200,3.6839,8.3592
110.5400,3.6846,8.3581
110.5600,3.6854,8.3588
110.5800,3.6862,8.3610
110.6000,3.6870,8.3631
110.6200,3.6876,8.3642
110.6400,3.6880,8.3634
110.6600,3.6886,8.3608
110.6800,3.6892,8.3580
110.7000,3.6900,8.3571
110.7200,3.6908,8.3585
110.7400,3.6915,8.3605
110.7600,3.6921,8.3619
110.7800,3.6927,8.3619
110.8000,3.6933,8.3605
110.8200,3.6938,8.3586
110.8400,3.6946,8.3571
110.8600,3.6954,8.3571
110.8800,3.6962,8.3587
110.9000,3.6969,8.3611
110.9200,3.6976,8.3627
110.9400,3.6980,8.3624
110.9600,3.6986,8.3604
110.9800,3.6992,8.3579
111.0000,3.6999,8.3562
111.0200,3.7008,8.3571
111.0400,3.7015,8.3592
111.0600,3.7022,8.3613
111.0800,3.7029,8.3621
111.1000,3.7033,8.3613
111.1200,3.7039,8.3595
111.1400,3.7046,8.3577
111.1600,3.7054,8.3573
111.1800,3.7062,8.3588
111.2000,3.7069,8.3608
111.2200,3.7076,8.3619
111.2400,3.7081,8.3616
111.2600,3.7086,8.3600
111.2800,3.7092,8.3579
111.3000,3.7099,8.3562
111.3200,3.7108,8.3563
111.3400,3.7116,8.3582
111.3600,3.7123,8.3604
111.3800,3.7129,8.3618
111.4000,3.7135,8.3618
111.4200,3.7140,8.3602
111.4400,3.7146,8.3578
111.4600,3.7153,8.3562
111.4800,3.7161,8.3562
111.5000,3.7168,8.3576
111.5200,3.7175,8.3591
111.5400,3.7182,8.3599
111.5600,3.7187,8.3593
111.5800,3.7192,8.3576
111.6000,3.7199,8.3558
111.6200,3.7207,8.3553
111.6400,3.7216,8.3567
111.6600,3.7224,8.3590
111.6800,3.7230,8.3606
111.7000,3.7235,8.3606
111.7200,3.7240,8.3589
111.7400,3.7246,8.3562
111.7600,3.7252,8.3540
111.7800,3.7260,8.3536
111.8000,3.7268,8.3549
111.8200,3.7276,8.3569
111.8400,3.7282,8.3582
111.8600,3.7287,8.3581
111.8800,3.7293,8.3566
111.9000,3.7299,8.3544
111.9200,3.7307,8.3534
111.9400,3.7315,8.3543
111.9600,3.7323,8.3565
111.9800,3.7330,8.3583
112.0000,3.7335,8.3586
112.0200,3.7340,8.3568
112.0400,3.7345,8.3542
112.0600,3.7352,8.3518
112.0800,3.7359,8.3508
112.1000,3.7367,8.3518
112.1200,3.7375,8.3538
112.1400,3.7382,8.3555
112.1600,3.7387,8.3564
112.1800,3.7393,8.3557
112.2000,3.7399,8.3536
112.2200,3.7406,8.3520
112.2400,3.7415,8.3523
112.2600,3.7422,8.3540
112.2800,3.7429,8.3558
112.3000,3.7435,8.3566
112.3200,3.7440,8.3559
112.3400,3.7445,8.3538
112.3600,3.7451,8.3516
112.3800,3.7459,8.3501
112.4000,3.7467,8.3507
112.4200,3.7475,8.3526
112.4400,3.7483,8.3549
112.4600,3.7489,8.3563
112.4800,3.7494,8.3557
112.5000,3.7499,8.3536
112.5200,3.7506,8.3515
112.5400,3.7514,8.3510
112.5600,3.7522,8.3523
112.5800,3.7529,8.3540
112.6000,3.7535,8.3552
112.6200,3.7541,8.3550
112.6400,3.7546,8.3534
112.6600,3.7552,8.3512
112.6800,3.7559,8.3497
112.7000,3.7567,8.3498
112.7200,3.7576,8.3517
112.7400,3.7583,8.3540
112.7600,3.7589,8.3555
112.7800,3.7594,8.3551
112.8000,3.7600,8.3531
112.8200,3.7606,8.3505
112.8400,3.7614,8.3492
112.8600,3.7622,8.3500
112.8800,3.7629,8.3519
112.9000,3.7636,8.3536
112.9200,3.7641,8.3538
112.9400,3.7647,8.3521
112.9600,3.7652,8.3499
112.9800,3.7659,8.3481
113.0000,3.7668,8.3479
113.0200,3.7676,8.3498
113.0400,3.7683,8.3523
113.0600,3.7689,8.3535
113.0800,3.7694,8.3527
113.1000,3.7699,8.3504
113.1200,3.7705,8.3477
113.1400,3.7713,8.3463
113.1600,3.7721,8.3470
113.1800,3.7729,8.3490
113.2000,3.7736,8.3511
113.2200,3.7742,8.3517
113.2400,3.7747,8.3509
113.2600,3.7753,8.3491
113.2800,3.7759,8.3470
113.3000,3.7767,8.3459
113.3200,3.7775,8.3469
113.3400,3.7782,8.3488
113.3600,3.7789,8.3502
113.3800,3.7794,8.3500
113.4000,3.7799,8.3483
113.4200,3.7805,8.3460
113.4400,3.7812,8.3439
113.4600,3.7820,8.3438
113.4800,3.7828,8.3456
113.5000,3.7836,8.3481
113.5200,3.7842,8.3497
113.5400,3.7848,8.3493
113.5600,3.7853,8.3478
113.5800,3.7859,8.3458
113.6000,3.7866,8.3440
113.6200,3.7874,8.3439
113.6400,3.7882,8.3455
113.6600,3.7888,8.3472
113.6800,3.7895,8.3479
113.7000,3.7900,8.3473
113.7200,3.7906,8.3454
113.7400,3.7912,8.3435
113.7600,3.7920,8.3430
113.7800,3.7928,8.3441
113.8000,3.7936,8.3463
113.8200,3.7943,8.3484
113.8400,3.7949,8.3490
113.8600,3.7953,8.3477
113.8800,3.7959,8.3453
113.9000,3.7966,8.3432
113.9200,3.7974,8.3427
113.9400,3.7982,8.3439
113.9600,3.7989,8.3458
113.9800,3.7996,8.3471
114.0000,3.8001,8.3472
114.0200,3.8006,8.3459
114.0400,3.8012,8.3437
114.0600,3.8020,8.3423
114.0800,3.8028,8.3432
114.1000,3.8036,8.3453
114.1200,3.8043,8.3473
114.1400,3.8049,8.3478
114.1600,3.8053,8.3465
114.1800,3.8059,8.3443
114.2000,3.8066,8.3422
114.2200,3.8073,8.3413
114.2400,3.8081,8.3421
114.2600,3.8089,8.3440
114.2800,3.8096,8.3457
114.3000,3.8102,8.3463
114.3200,3.8107,8.3452
114.3400,3.8113,8.3431
114.3600,3.8120,8.3415
114.3800,3.8128,8.3418
114.4000,3.8136,8.3435
114.4200,3.8142,8.3449
114.4400,3.8149,8.3452
114.4600,3.8154,8.3445
114.4800,3.8159,8.3426
114.5000,3.8165,8.3403
114.5200,3.8172,8.3388
114.5400,3.8181,8.3392
114.5600,3.8189,8.3413
114.5800,3.8196,8.3434
114.6000,3.8202,8.3445
114.6200,3.8208,8.3438
114.6400,3.8213,8.3419
114.6600,3.8219,8.3398
114.6800,3.8227,8.3389
114.7000,3.8234,8.3395
114.7200,3.8241,8.3408
114.7400,3.8248,8.3417
114.7600,3.8254,8.3418
114.7800,3.8259,8.3406
114.8000,3.8265,8.3389
114.8200,3.8272,8.3371
114.8400,3.8280,8.3366
114.8600,3.8289,8.3380
114.8800,3.8296,8.3403
114.9000,3.8302,8.3422
114.9200,3.8308,8.3422
114.9400,3.8313,8.3403
114.9600,3.8319,8.3380
114.9800,3.8326,8.3362
115.0000,3.8334,8.3362
115.0200,3.8342,8.3380
115.0400,3.8349,8.3397
115.0600,3.8355,8.3405
115.0800,3.8360,8.3398
115.1000,3.8366,8.3381
115.1200,3.8373,8.3364
115.1400,3.8381,8.3359
115.1600,3.8389,8.3371
115.1800,3.8396,8.3391
115.2000,3.8403,8.3406
115.2200,3.8408,8.3404
115.2400,3.8413,8.3386
115.2600,3.8419,8.3364
115.2800,3.8426,8.3345
115.3000,3.8434,8.3343
115.3200,3.8442,8.3359
115.3400,3.8449,8.3378
115.3600,3.8456,8.3389
115.3800,3.8461,8.3385
115.4000,3.8466,8.3366
115.4200,3.8473,8.3346
115.4400,3.8481,8.3339
115.4600,3.8488,8.3348
115.4800,3.8496,8.3363
115.5000,3.8502,8.3374
115.5200,3.8508,8.3375
115.5400,3.8513,8.3360
115.5600,3.8519,8.3340
115.5800,3.8526,8.3320
115.6000,3.8534,8.3315
115.6200,3.8542,8.3330
115.6400,3.8549,8.3353
115.6600,3.8556,8.3368
115.6800,3.8561,8.3367
115.7000,3.8567,8.3350
115.7200,3.8573,8.3328
115.7400,3.8580,8.3310
115.7600,3.8587,8.3310
115.7800,3.8595,8.3320
115.8000,3.8602,8.3336
115.8200,3.8608,8.3343
115.8400,3.8613,8.3338
115.8600,3.8619,8.3319
115.8800,3.8626,8.3297
115.9000,3.8634,8.3289
115.9200,3.8642,8.3301
115.9400,3.8650,8.3323
115.9600,3.8657,8.3341
115.9800,3.8661,8.3345
116.0000,3.8667,8.3330
116.0200,3.8672,8.3303
116.0400,3.8679,8.3277
116.0600,3.8686,8.3270
116.0800,3.8694,8.3280
116.1000,3.8702,8.3299
116.1200,3.8708,8.3313
116.1400,3.8713,8.3314
116.1600,3.8719,8.3300
116.1800,3.8725,8.3278
116.2000,3.8733,8.3263
116.2200,3.8742,8.3270
116.2400,3.8749,8.3294
116.2600,3.8756,8.3316
116.2800,3.8761,8.3317
116.3000,3.8766,8.3302
116.3200,3.8772,8.3278
116.3400,3.8778,8.3256
116.3600,3.8786,8.3246
116.3800,3.8794,8.3254
116.4000,3.8802,8.3277
116.4200,3.8809,8.3298
116.4400,3.8815,8.3305
116.4600,3.8820,8.3295
116.4800,3.8826,8.3273
116.5000,3.8833,8.3252
116.5200,3.8842,8.3255
116.5400,3.8849,8.3275
116.5600,3.8856,8.3293
116.5800,3.8862,8.3295
116.6000,3.8867,8.3284
116.6200,3.8872,8.3262
116.6400,3.8878,8.3241
116.6600,3.8886,8.3231
116.6800,3.8894,8.3237
116.7000,3.8902,8.3256
116.7200,3.8910,8.3278
116.7400,3.8916,8.3290
116.7600,3.8921,8.3286
116.7800,3.8927,8.3266
116.8000,3.8933,8.3243
116.8200,3.8941,8.3234
116.8400,3.8949,8.3244
116.8600,3.8956,8.3260
116.8800,3.8962,8.3269
116.9000,3.8968,8.3266
116.9200,3.8973,8.3251
116.9400,3.8979,8.3230
116.9600,3.8986,8.3214
116.9800,3.8994,8.3212
117.0000,3.9003,8.3228
117.0200,3.9010,8.3248
117.0400,3.9017,8.3264
117.0600,3.9021,8.3263
117.0800,3.9026,8.3239
117.1000,3.9032,8.3210
117.1200,3.9040,8.3191
117.1400,3.9048,8.3195
117.1600,3.9056,8.3213
117.1800,3.9062,8.3229
117.2000,3.9068,8.3234
117.2200,3.9074,8.3225
117.2400,3.9079,8.3206
117.2600,3.9086,8.3183
117.2800,3.9093,8.3172
117.3000,3.9101,8.3181
117.3200,3.9109,8.3201
117.3400,3.9116,8.3219
117.3600,3.9121,8.3220
117.3800,3.9126,8.3205
117.4000,3.9131,8.3177
117.4200,3.9138,8.3153
117.4400,3.9147,8.3150
117.4600,3.9154,8.3167
117.4800,3.9162,8.3188
117.5000,3.9168,8.3201
117.5200,3.9174,8.3200
117.5400,3.9179,8.3184
117.5600,3.9185,8.3161
117.5800,3.9193,8.3148
117.6000,3.9201,8.3152
117.6200,3.9208,8.3169
117.6400,3.9215,8.3182
117.6600,3.9221,8.3187
117.6800,3.9227,8.3177
117.7000,3.9232,8.3157
117.7200,3.9238,8.3137
117.7400,3.9246,8.3129
117.7600,3.9255,8.3141
117.7800,3.9262,8.3163
117.8000,3.9269,8.3184
117.8200,3.9275,8.3189
117.8400,3.9280,8.3176
117.8600,3.9286,8.3154
117.8800,3.9292,8.3132
117.9000,3.9300,8.3123
117.9200,3.9308,8.3133
117.9400,3.9316,8.3149
117.9600,3.9322,8.3162
117.9800,3.9327,8.3162
118.0000,3.9333,8.3149
118.0200,3.9339,8.3128
118.0400,3.9347,8.3114
118.0600,3.9355,8.3120
118.0800,3.9363,8.3141
118.1000,3.9370,8.3160
118.1200,3.9376,8.3168
118.1400,3.9380,8.3156
118.1600,3.9386,8.3129
118.1800,3.9392,8.3102
118.2000,3.9400,8.3087
118.2200,3.9408,8.3091
118.2400,3.9416,8.3110
118.2600,3.9423,8.3131
118.2800,3.9429,8.3139
118.3000,3.9433,8.3127
118.3200,3.9440,8.3104
118.3400,3.9447,8.3086
118.3600,3.9455,8.3086
118.3800,3.9463,8.3104
118.4000,3.9470,8.3124
118.4200,3.9476,8.3130
118.4400,3.9481,8.3118
118.4600,3.9486,8.3092
118.4800,3.9492,8.3065
118.5000,3.9499,8.3047
118.5200,3.9507,8.3048
118.5400,3.9515,8.3065
118.5600,3.9522,8.3086
118.5800,3.9529,8.3097
118.6000,3.9534,8.3091
118.6200,3.9539,8.3070
118.6400,3.9546,8.3048
118.6600,3.9554,8.3041
118.6800,3.9562,8.3054
118.7000,3.9569,8.3073
118.7200,3.9575,8.3081
118.7400,3.9580,8.3075
118.7600,3.9586,8.3056
118.7800,3.9591,8.3034
118.8000,3.9598,8.3016
118.8200,3.9606,8.3011
118.8400,3.9614,8.3023
118.8600,3.9622,8.3046
118.8800,3.9629,8.3065
118.9000,3.9634,8.3067
118.9200,3.9639,8.3050
118.9400,3.9646,8.3026
118.9600,3.9653,8.3011
118.9800,3.9661,8.3014
119.0000,3.9669,8.3030
119.0200,3.9675,8.3044
119.0400,3.9681,8.3046
119.0600,3.9686,8.3034
119.0800,3.9692,8.3015
119.1000,3.9699,8.2994
119.1200,3.9707,8.2987
119.1400,3.9715,8.2998
119.1600,3.9723,8.3022
119.1800,3.9730,8.3040
119.2000,3.9734,8.3042
119.2200,3.9740,8.3025
119.2400,3.9746,8.2999
119.2600,3.9753,8.2980
119.2800,3.9761,8.2978
119.3000,3.9769,8.2995
119.3200,3.9776,8.3015
119.3400,3.9782,8.3021
119.3600,3.9787,8.3013
119.3800,3.9793,8.2994
119.4000,3.9799,8.2971
119.4200,3.9807,8.2960
119.4400,3.9815,8.2968
119.4600,3.9823,8.2990
119.4800,3.9829,8.3010
119.5000,3.9835,8.3010
119.5200,3.9840,8.2992
119.5400,3.9845,8.2967
119.5600,3.9852,8.2942
119.5800,3.9860,8.2936
119.6000,3.9869,8.2951
119.6200,3.9876,8.2974
119.6400,3.9883,8.2989
119.6600,3.9888,8.2986
119.6800,3.9893,8.2969
119.7000,3.9899,8.2945
119.7200,3.9907,8.2928
119.7400,3.9915,8.2929
119.7600,3.9922,8.2946
119.7800,3.9929,8.2960
119.8000,3.9935,8.2964
119.8200,3.9940,8.2951
119.8400,3.9946,8.2930
119.8600,3.9952,8.2904
119.8800,3.9960,8.2893
119.9000,3.9969,8.2904
119.9200,3.9976,8.2926
119.9400,3.9983,8.2944
119.9600,3.9988,8.2947
119.9800,3.9994,8.2934
120.0000,3.9999,8.2910
120.0200,4.0006,8.2886
120.0400,4.0014,8.2876
120.0600,4.0022,8.2884
120.0800,4.0029,8.2901
120.1000,4.0035,8.2909
120.1200,4.0040,8.2904
120.1400,4.0046,8.2887
120.1600,4.0052,8.2865
120.1800,4.0059,8.2850
120.2000,4.0067,8.2853
120.2200,4.0075,8.2870
120.2400,4.0083,8.2892
120.2600,4.0089,8.2906
120.2800,4.0094,8.2899
120.3000,4.0099,8.2876
120.3200,4.0105,8.2850
120.3400,4.0113,8.2833
120.3600,4.0121,8.2837
120.3800,4.0129,8.2854
120.4000,4.0136,8.2870
120.4200,4.0142,8.2876
120.4400,4.0146,8.2866
120.4600,4.0152,8.2847
120.4800,4.0159,8.2826
120.5000,4.0167,8.2822
120.5200,4.0175,8.2834
120.5400,4.0183,8.2855
120.5600,4.0189,8.2869
120.5800,4.0194,8.2862
120.6000,4.0199,8.2843
120.6200,4.0205,8.2822
120.6400,4.0213,8.2802
120.6600,4.0220,8.2801
120.6800,4.0228,8.2816
120.7000,4.0236,8.2834
120.7200,4.0242,8.2845
120.7400,4.0248,8.2841
120.7600,4.0253,8.2822
120.7800,4.0260,8.2800
120.8000,4.0268,8.2792
120.8200,4.0276,8.2803
120.8400,4.0282,8.2819
120.8600,4.0289,8.2828
120.8800,4.0295,8.2823
120.9000,4.0300,8.2805
120.9200,4.0306,8.2783
120.9400,4.0312,8.2762
120.9600,4.0321,8.2755
120.9800,4.0329,8.2767
121.0000,4.0336,8.2787
121.0200,4.0343,8.2803
121.0400,4.0348,8.2804
121.0600,4.0354,8.2788
121.0800,4.0360,8.2765
121.1000,4.0367,8.2749
121.1200,4.0375,8.2746
121.1400,4.0382,8.2756
121.1600,4.0389,8.2768
121.1800,4.0395,8.2775
121.2000,4.0400,8.2765
121.2200,4.0406,8.2744
121.2400,4.0412,8.2720
121.2600,4.0420,8.2709
121.2800,4.0428,8.2717
121.3000,4.0436,8.2736
121.3200,4.0443,8.2752
121.3400,4.0449,8.2759
121.3600,4.0453,8.2745
121.3800,4.0459,8.2720
121.4000,4.0465,8.2695
121.4200,4.0473,8.2687
121.4400,4.0481,8.2696
121.4600,4.0488,8.2711
121.4800,4.0495,8.2721
121.5000,4.0501,8.2721
121.5200,4.0506,8.2707
121.5400,4.0512,8.2686
121.5600,4.0520,8.2673
121.5800,4.0528,8.2677
121.6000,4.0536,8.2693
121.6200,4.0542,8.2710
121.6400,4.0548,8.2715
121.6600,4.0554,8.2702
121.6800,4.0559,8.2677
121.7000,4.0565,8.2655
121.7200,4.0573,8.2645
121.7400,4.0581,8.2654
121.7600,4.0589,8.2673
121.7800,4.0595,8.2688
121.8000,4.0601,8.2689
121.8200,4.0607,8.2677
121.8400,4.0613,8.2658
121.8600,4.0620,8.2644
121.8800,4.0628,8.2643
121.9000,4.0636,8.2652
121.9200,4.0642,8.2662
121.9400,4.0648,8.2667
121.9600,4.0654,8.2661
121.9800,4.0659,8.2643
122.0000,4.0665,8.2619
122.0200,4.0673,8.2604
122.0400,4.0682,8.2609
122.0600,4.0689,8.2629
122.0800,4.0696,8.2647
122.1000,4.0702,8.2652
122.1200,4.0707,8.2641
122.1400,4.0713,8.2619
122.1600,4.0720,8.2597
122.1800,4.0727,8.2588
122.2000,4.0735,8.2595
122.2200,4.0742,8.2610
122.2400,4.0749,8.2621
122.2600,4.0754,8.2621
122.2800,4.0760,8.2603
122.3000,4.0766,8.2579
122.3200,4.0773,8.2562
122.3400,4.0782,8.2566
122.3600,4.0789,8.2584
122.3800,4.0797,8.2601
122.4000,4.0803,8.2608
122.4200,4.0807,8.2597
122.4400,4.0813,8.2573
122.4600,4.0819,8.2546
122.4800,4.0826,8.2527
122.5000,4.0834,8.2527
122.5200,4.0842,8.2544
122.5400,4.0849,8.2561
122.5600,4.0855,8.2566
122.5800,4.0861,8.2555
122.6000,4.0866,8.2535
122.6200,4.0873,8.2513
122.6400,4.0881,8.2509
122.6600,4.0889,8.2524
122.6800,4.0896,8.2544
122.7000,4.0902,8.2550
122.7200,4.0907,8.2537
122.7400,4.0912,8.2514
122.7600,4.0918,8.2487
122.7800,4.0925,8.2467
122.8000,4.0933,8.2466
122.8200,4.0941,8.2483
122.8400,4.0949,8.2502
122.8600,4.0955,8.2511
122.8800,4.0960,8.2507
122.9000,4.0966,8.2488
122.9200,4.0972,8.2464
122.9400,4.0981,8.2455
122.9600,4.0989,8.2464
122.9800,4.0996,8.2480
123.0000,4.1001,8.2488
123.0200,4.1007,8.2482
123.0400,4.1013,8.2463
123.0600,4.1019,8.2440
123.0800,4.1026,8.2424
123.1000,4.1034,8.2421
123.1200,4.1042,8.2432
123.1400,4.1050,8.2452
123.1600,4.1056,8.2469
123.1800,4.1061,8.2472
123.2000,4.1067,8.2457
123.2200,4.1073,8.2430
123.2400,4.1080,8.2408
123.2600,4.1088,8.2407
123.2800,4.1095,8.2421
123.3000,4.1102,8.2434
123.3200,4.1108,8.2438
123.3400,4.1113,8.2426
123.3600,4.1119,8.2409
123.3800,4.1126,8.2389
123.4000,4.1134,8.2378
123.4200,4.1142,8.2385
123.4400,4.1150,8.2402
123.4600,4.1157,8.2421
123.4800,4.1162,8.2425
123.5000,4.1167,8.2409
123.5200,4.1172,8.2379
123.5400,4.1179,8.2354
123.5600,4.1187,8.2348
123.5800,4.1195,8.2361
123.6000,4.1202,8.2378
123.6200,4.1209,8.2388
123.6400,4.1215,8.2382
123.6600,4.1220,8.2363
123.6800,4.1226,8.2338
123.7000,4.1233,8.2320
123.7200,4.1241,8.2320
123.7400,4.1249,8.2336
123.7600,4.1256,8.2354
123.7800,4.1262,8.2361
123.8000,4.1267,8.2348
123.8200,4.1272,8.2321
123.8400,4.1279,8.2292
123.8600,4.1287,8.2280
123.8800,4.1295,8.2290
123.9000,4.1302,8.2309
123.9200,4.1309,8.2324
123.9400,4.1315,8.2323
123.9600,4.1320,8.2307
123.9800,4.1326,8.2281
124.0000,4.1333,8.2261
124.0200,4.1341,8.2257
124.0400,4.1349,8.2268
124.0600,4.1355,8.2283
124.0800,4.1361,8.2289
124.1000,4.1367,8.2280
124.1200,4.1372,8.2262
124.1400,4.1378,8.2238
124.1600,4.1386,8.2219
124.1800,4.1394,8.2219
124.2000,4.1402,8.2236
124.2200,4.1409,8.2257
124.2400,4.1416,8.2267
124.2600,4.1421,8.2260
124.2800,4.1426,8.2238
124.3000,4.1432,8.2214
124.3200,4.1439,8.2197
124.3400,4.1447,8.2199
124.3600,4.1455,8.2212
124.3800,4.1462,8.2224
124.4000,4.1468,8.2228
124.4200,4.1473,8.2220
124.4400,4.1479,8.2201
124.4600,4.1486,8.2180
124.4800,4.1494,8.2174
124.5000,4.1502,8.2188
124.5200,4.1510,8.2209
124.5400,4.1516,8.2223
124.5600,4.1521,8.2217
124.5800,4.1526,8.2193
124.6000,4.1532,8.2163
124.6200,4.1539,8.2142
124.6400,4.1547,8.2139
124.6600,4.1555,8.2152
124.6800,4.1562,8.2168
124.7000,4.1569,8.2179
124.7200,4.1574,8.2175
124.7400,4.1579,8.2155
124.7600,4.1586,8.2131
124.7800,4.1594,8.2122
124.8000,4.1603,8.2133
124.8200,4.1610,8.2152
124.8400,4.1616,8.2162
124.8600,4.1621,8.2154
124.8800,4.1627,8.2132
124.9000,4.1632,8.2104
124.9200,4.1639,8.2080
124.9400,4.1647,8.2070
124.9600,4.1655,8.2080
124.9800,4.1662,8.2097
125.0000,4.1669,8.2112
125.0200,4.1675,8.2114
125.0400,4.1680,8.2095
125.0600,4.1687,8.2069
125.0800,4.1694,8.2053
125.1000,4.1702,8.2057
125.1200,4.1710,8.2071
125.1400,4.1716,8.2081
125.1600,4.1722,8.2079
125.1800,4.1727,8.2064
125.2000,4.1732,8.2040
125.2200,4.1739,8.2015
125.2400,4.1746,8.1999
125.2600,4.1754,8.2003
125.2800,4.1762,8.2021
125.3000,4.1769,8.2040
125.3200,4.1775,8.2046
125.3400,4.1780,8.2032
125.3600,4.1786,8.2006
125.3800,4.1793,8.1984
125.4000,4.1801,8.1979
125.4200,4.1808,8.1988
125.4400,4.1815,8.2000
125.4600,4.1821,8.2005
125.4800,4.1827,8.1997
125.5000,4.1832,8.1978
125.5200,4.1838,8.1954
125.5400,4.1845,8.1937
125.5600,4.1854,8.1937
125.5800,4.1862,8.1953
125.6000,4.1869,8.1973
125.6200,4.1875,8.1982
125.6400,4.1880,8.1973
125.6600,4.1886,8.1949
125.6800,4.1892,8.1922
125.7000,4.1900,8.1909
125.7200,4.1908,8.1916
125.7400,4.1915,8.1932
125.7600,4.1922,8.1945
125.7800,4.1928,8.1945
125.8000,4.1933,8.1928
125.8200,4.1938,8.1902
125.8400,4.1946,8.1883
125.8600,4.1954,8.1881
125.8800,4.1963,8.1896
125.9000,4.1969,8.1918
125.9200,4.1975,8.1926
125.9400,4.1981,8.1915
125.9600,4.1986,8.1890
125.9800,4.1992,8.1861
126.0000,4.2000,8.1844
126.0200,4.2008,8.1849
126.0400,4.2016,8.1867
126.0600,4.2022,8.1882
126.0800,4.2028,8.1885
126.1000,4.2034,8.1872
126.1200,4.2040,8.1848
126.1400,4.2047,8.1824
126.1600,4.2055,8.1815
126.1800,4.2062,8.1826
126.2000,4.2070,8.1840
126.2200,4.2076,8.1848
126.2400,4.2081,8.1840
126.2600,4.2086,8.1817
126.2800,4.2092,8.1789
126.3000,4.2099,8.1768
126.3200,4.2108,8.1768
126.3400,4.2116,8.1786
126.3600,4.2123,8.1807
126.3800,4.2129,8.1815
126.4000,4.2135,8.1804
126.4200,4.2140,8.1780
126.4400,4.2146,8.1753
126.4600,4.2154,8.1737
126.4800,4.2162,8.1738
126.5000,4.2169,8.1750
126.5200,4.2176,8.1760
126.5400,4.2181,8.1757
126.5600,4.2186,8.1742
126.5800,4.2192,8.1719
126.6000,4.2199,8.1696
126.6200,4.2207,8.1688
126.6400,4.2215,8.1697
126.6600,4.2223,8.1715
126.6800,4.2229,8.1728
126.7000,4.2235,8.1725
126.7200,4.2240,8.1705
126.7400,4.2245,8.1676
126.7600,4.2252,8.1651
126.7800,4.2260,8.1644
126.8000,4.2268,8.1652
126.8200,4.2275,8.1666
126.8400,4.2281,8.1673
126.8600,4.2287,8.1669
126.8800,4.2292,8.1650
126.9000,4.2298,8.1628
126.9200,4.2306,8.1613
126.9400,4.2314,8.1616
126.9600,4.2322,8.1635
126.9800,4.2329,8.1652
127.0000,4.2334,8.1653
127.0200,4.2340,8.1636
127.0400,4.2345,8.1610
127.0600,4.2352,8.1587
127.0800,4.2359,8.1576
127.1000,4.2367,8.1584
127.1200,4.2376,8.1602
127.1400,4.2382,8.1617
127.1600,4.2388,8.1618
127.1800,4.2393,8.1605
127.2000,4.2400,8.1581
127.2200,4.2407,8.1561
127.2400,4.2415,8.1560
127.2600,4.2422,8.1574
127.2800,4.2429,8.1583
127.3000,4.2435,8.1581
127.3200,4.2440,8.1566
127.3400,4.2446,8.1542
127.3600,4.2452,8.1518
127.3800,4.2460,8.1505
127.4000,4.2468,8.1508
127.4200,4.2476,8.1524
127.4400,4.2483,8.1541
127.4600,4.2489,8.1548
127.4800,4.2494,8.1538
127.5000,4.2500,8.1514
127.5200,4.2507,8.1489
127.5400,4.2514,8.1480
127.5600,4.2522,8.1487
127.5800,4.2529,8.1497
127.6000,4.2536,8.1503
127.6200,4.2541,8.1495
127.6400,4.2546,8.1474
127.6600,4.2552,8.1448
127.6800,4.2559,8.1428
127.7000,4.2568,8.1427
127.7200,4.2576,8.1440
127.7400,4.2583,8.1457
127.7600,4.2589,8.1467
127.7800,4.2595,8.1458
127.8000,4.2599,8.1433
127.8200,4.2606,8.1404
127.8400,4.2613,8.1385
127.8600,4.2621,8.1385
127.8800,4.2629,8.1398
127.9000,4.2635,8.1409
127.9200,4.2642,8.1408
127.9400,4.2647,8.1395
127.9600,4.2652,8.1373
127.9800,4.2659,8.1352
128.0000,4.2667,8.1345
128.0200,4.2676,8.1354
128.0400,4.2683,8.1369
128.0600,4.2689,8.1376
128.0800,4.2694,8.1367
128.1000,4.2699,8.1342
128.1200,4.2705,8.1315
128.1400,4.2712,8.1295
128.1600,4.2720,8.1291
128.1800,4.2728,8.1305
128.2000,4.2735,8.1319
128.2200,4.2741,8.1324
128.2400,4.2747,8.1316
128.2600,4.2753,8.1296
128.2800,4.2759,8.1274
128.3000,4.2767,8.1264
128.3200,4.2775,8.1269
128.3400,4.2782,8.1279
128.3600,4.2789,8.1286
128.3800,4.2794,8.1283
128.4000,4.2799,8.1267
128.4200,4.2805,8.1244
128.4400,4.2812,8.1222
128.4600,4.2820,8.1216
128.4800,4.2828,8.1227
128.5000,4.2836,8.1245
128.5200,4.2842,8.1255
128.5400,4.2848,8.1249
128.5600,4.2853,8.1230
128.5800,4.2859,8.1205
128.6000,4.2866,8.1189
128.6200,4.2874,8.1185
128.6400,4.2882,8.1195
128.6600,4.2889,8.1206
128.6800,4.2895,8.1209
128.7000,4.2900,8.1199
128.7200,4.2906,8.1175
128.7400,4.2912,8.1150
128.7600,4.2921,8.1141
128.7800,4.2929,8.1150
128.8000,4.2936,8.1168
128.8200,4.2943,8.1180
128.8400,4.2948,8.1176
128.8600,4.2954,8.1155
128.8800,4.2959,8.1124
128.9000,4.2966,8.1098
128.9200,4.2974,8.1087
128.9400,4.2981,8.1096
128.9600,4.2989,8.1111
128.9800,4.2995,8.1118
129.0000,4.3001,8.1110
129.0200,4.3006,8.1088
129.0400,4.3012,8.1061
129.0600,4.3021,8.1046
129.0800,4.3029,8.1055
129.1000,4.3037,8.1074
129.1200,4.3043,8.1087
129.1400,4.3048,8.1080
129.1600,4.3053,8.1055
129.1800,4.3059,8.1026
129.2000,4.3066,8.0999
129.2200,4.3074,8.0986
129.2400,4.3082,8.0992
129.2600,4.3089,8.1008
129.2800,4.3096,8.1022
129.3000,4.3101,8.1022
129.3200,4.3106,8.1004
129.3400,4.3112,8.0975
129.3600,4.3120,8.0952
129.3800,4.3128,8.0951
129.4000,4.3136,8.0967
129.4200,4.3142,8.0978
129.4400,4.3147,8.0975
129.4600,4.3153,8.0958
129.4800,4.3159,8.0934
129.5000,4.3165,8.0909
129.5200,4.3173,8.0893
129.5400,4.3181,8.0896
129.5600,4.3189,8.0912
129.5800,4.3196,8.0931
129.6000,4.3202,8.0937
129.6200,4.3207,8.0926
129.6400,4.3213,8.0901
129.6600,4.3219,8.0874
129.6800,4.3227,8.0862
129.7000,4.3235,8.0869
129.7200,4.3242,8.0879
129.7400,4.3248,8.0884
129.7600,4.3254,8.0878
129.7800,4.3259,8.0860
129.8000,4.3265,8.0834
129.8200,4.3272,8.0815
129.8400,4.3280,8.0811
129.8600,4.3289,8.0823
129.8800,4.3296,8.0843
129.9000,4.3303,8.0855
129.9200,4.3308,8.0846
129.9400,4.3312,8.0817
129.9600,4.3319,8.0785
129.9800,4.3326,8.0766
130.0000,4.3334,8.0769
130.0200,4.3342,8.0784
130.0400,4.3349,8.0794
130.0600,4.3355,8.0792
130.0800,4.3360,8.0777
130.1000,4.3366,8.0752
130.1200,4.3372,8.0729
130.1400,4.3381,8.0719
130.1600,4.3389,8.0726
130.1800,4.3397,8.0743
130.2000,4.3403,8.0755
130.2200,4.3408,8.0750
130.2400,4.3413,8.0725
130.2600,4.3419,8.0692
130.2800,4.3426,8.0669
130.3000,4.3434,8.0667
130.3200,4.3442,8.0681
130.3400,4.3450,8.0696
130.3600,4.3456,8.0700
130.3800,4.3461,8.0689
130.4000,4.3467,8.0666
130.4200,4.3473,8.0640
130.4400,4.3481,8.0624
130.4600,4.3489,8.0626
130.4800,4.3496,8.0638
130.5000,4.3502,8.0646
130.5200,4.3508,8.0640
130.5400,4.3513,8.0618
130.5600,4.3519,8.0591
130.5800,4.3526,8.0566
130.6000,4.3534,8.0558
130.6200,4.3542,8.0569
130.6400,4.3549,8.0587
130.6600,4.3556,8.0598
130.6800,4.3562,8.0595
130.7000,4.3566,8.0573
130.7200,4.3572,8.0545
130.7400,4.3579,8.0522
130.7600,4.3587,8.0513
130.7800,4.3594,8.0517
130.8000,4.3602,8.0529
130.8200,4.3608,8.0535
130.8400,4.3614,8.0528
130.8600,4.3618,8.0507
130.8800,4.3625,8.0482
130.9000,4.3633,8.0467
130.9200,4.3641,8.0468
130.9400,4.3649,8.0484
130.9600,4.3656,8.0499
130.9800,4.3662,8.0503
131.0000,4.3667,8.0486
131.0200,4.3672,8.0455
131.0400,4.3678,8.0425
131.0600,4.3686,8.0411
131.0800,4.3694,8.0414
131.1000,4.3701,8.0427
131.1200,4.3709,8.0440
131.1400,4.3714,8.0443
131.1600,4.3720,8.0430
131.1800,4.3726,8.0406
131.2000,4.3734,8.0383
131.2200,4.3742,8.0379
131.2400,4.3750,8.0393
131.2600,4.3757,8.0409
131.2800,4.3762,8.0411
131.3000,4.3767,8.0394
131.3200,4.3773,8.0361
131.3400,4.3779,8.0331
131.3600,4.3786,8.0314
131.3800,4.3794,8.0315
131.4000,4.3802,8.0327
131.4200,4.3810,8.0340
131.4400,4.3815,8.0345
131.4600,4.3820,8.0332
131.4800,4.3826,8.0305
131.5000,4.3833,8.0280
131.5200,4.3841,8.0275
131.5400,4.3849,8.0283
131.5600,4.3856,8.0294
131.5800,4.3862,8.0296
131.6000,4.3867,8.0285
131.6200,4.3873,8.0261
131.6400,4.3879,8.0232
131.6600,4.3886,8.0209
131.6800,4.3894,8.0202
131.7000,4.3902,8.0213
131.7200,4.3910,8.0230
131.7400,4.3916,8.0240
131.7600,4.3921,8.0230
131.7800,4.3926,8.0200
131.8000,4.3933,8.0173
131.8200,4.3941,8.0159
131.8400,4.3948,8.0161
131.8600,4.3956,8.0172
131.8800,4.3962,8.0178
131.9000,4.3968,8.0172
131.9200,4.3973,8.0154
131.9400,4.3978,8.0128
131.9600,4.3985,8.0104
131.9800,4.3993,8.0093
132.0000,4.4002,8.0099
132.0200,4.4009,8.0116
132.0400,4.4016,8.0126
132.0600,4.4021,8.0122
132.0800,4.4026,8.0103
132.1000,4.4032,8.0073
132.1200,4.4039,8.0047
132.1400,4.4047,8.0042
132.1600,4.4055,8.0054
132.1800,4.4062,8.0065
132.2000,4.4068,8.0065
132.2200,4.4073,8.0051
132.2400,4.4079,8.0026
132.2600,4.4085,7.9999
132.2800,4.4093,7.9984
132.3000,4.4102,7.9989
132.3200,4.4109,8.0012
132.3400,4.4116,8.0027
132.3600,4.4121,8.0023
132.3800,4.4126,8.0000
132.4000,4.4132,7.9966
132.4200,4.4139,7.9939
132.4400,4.4147,7.9934
132.4600,4.4155,7.9947
132.4800,4.4163,7.9966
132.5000,4.4169,7.9975
132.5200,4.4174,7.9966
132.5400,4.4180,7.9940
132.5600,4.4186,7.9911
132.5800,4.4194,7.9892
132.6000,4.4202,7.9892
132.6200,4.4209,7.9906
132.6400,4.4216,7.9916
132.6600,4.4222,7.9913
132.6800,4.4226,7.9894
132.7000,4.4232,7.9865
132.7200,4.4239,7.9838
132.7400,4.4247,7.9824
132.7600,4.4255,7.9832
132.7800,4.4263,7.9850
132.8000,4.4270,7.9864
132.8200,4.4275,7.9859
132.8400,4.4281,7.9838
132.8600,4.4286,7.9811
132.8800,4.4293,7.9785
132.9000,4.4301,7.9776
132.9200,4.4309,7.9782
132.9400,4.4316,7.9792
132.9600,4.4322,7.9792
132.9800,4.4327,7.9779
133.0000,4.4333,7.9752
133.0200,4.4339,7.9724
133.0400,4.4346,7.9705
133.0600,4.4355,7.9706
133.0800,4.4363,7.9721
133.1000,4.4370,7.9734
133.1200,4.4376,7.9735
133.1400,4.4381,7.9720
133.1600,4.4386,7.9692
133.1800,4.4392,7.9661
133.2000,4.4400,7.9643
133.2200,4.4408,7.9644
133.2400,4.4416,7.9656
133.2600,4.4422,7.9664
133.2800,4.4428,7.9663
133.3000,4.4433,7.9646
133.3200,4.4439,7.9617
133.3400,4.4446,7.9593
133.3600,4.4454,7.9586
133.3800,4.4462,7.9597
133.4000,4.4469,7.9612
133.4200,4.4476,7.9617
133.4400,4.4480,7.9606
133.4600,4.4486,7.9580
133.4800,4.4492,7.9551
133.5000,4.4499,7.9529
133.5200,4.4507,7.9528
133.5400,4.4515,7.9539
133.5600,4.4522,7.9551
133.5800,4.4528,7.9556
133.6000,4.4533,7.9545
133.6200,4.4539,7.9521
133.6400,4.4546,7.9496
133.6600,4.4554,7.9486
133.6800,4.4562,7.9494
133.7000,4.4569,7.9507
133.7200,4.4575,7.9510
133.7400,4.4581,7.9497
133.7600,4.4585,7.9474
133.7800,4.4591,7.9445
133.8000,4.4599,7.9422
133.8200,4.4607,7.9415
133.8400,4.4615,7.9425
133.8600,4.4622,7.9441
133.8800,4.4629,7.9452
133.9000,4.4635,7.9445
133.9200,4.4640,7.9421
133.9400,4.4646,7.9394
133.9600,4.4654,7.9377
133.9800,4.4661,7.9374
134.0000,4.4669,7.9380
134.0200,4.4676,7.9385
134.0400,4.4681,7.9380
134.0600,4.4687,7.9364
134.0800,4.4692,7.9338
134.1000,4.4699,7.9312
134.1200,4.4707,7.9296
134.1400,4.4715,7.9300
134.1600,4.4723,7.9314
134.1800,4.4730,7.9328
134.2000,4.4735,7.9324
134.2200,4.4740,7.9303
134.2400,4.4746,7.9274
134.2600,4.4753,7.9246
134.2800,4.4761,7.9236
134.3000,4.4769,7.9241
134.3200,4.4776,7.9251
134.3400,4.4782,7.9253
134.3600,4.4788,7.9244
134.3800,4.4793,7.9223
134.4000,4.4800,7.9196
134.4200,4.4808,7.9178
134.4400,4.4816,7.9179
134.4600,4.4823,7.9190
134.4800,4.4830,7.9201
134.5000,4.4836,7.9198
134.5200,4.4840,7.9175
134.5400,4.4846,7.9143
134.5600,4.4852,7.9114
134.5800,4.4860,7.9102
134.6000,4.4868,7.9110
134.6200,4.4876,7.9123
134.6400,4.4882,7.9129
134.6600,4.4888,7.9122
134.6800,4.4893,7.9101
134.7000,4.4899,7.9073
134.7200,4.4907,7.9055
134.7400,4.4915,7.9052
134.7600,4.4922,7.9061
134.7800,4.4929,7.9070
134.8000,4.4935,7.9068
134.8200,4.4940,7.9051
134.8400,4.4945,7.9022
134.8600,4.4951,7.8991
134.8800,4.4959,7.8972
134.9000,4.4967,7.8975
134.9200,4.4975,7.8989
134.9400,4.4982,7.9001
134.9600,4.4988,7.9000
134.9800,4.4993,7.8984
135.0000,4.4999,7.8959
135.0200,4.5006,7.8936
135.0400,4.5013,7.8924
135.0600,4.5021,7.8927
135.0800,4.5028,7.8936
135.1000,4.5035,7.8941
135.1200,4.5040,7.8936
135.1400,4.5046,7.8917
135.1600,4.5051,7.8890
135.1800,4.5059,7.8868
135.2000,4.5068,7.8867
135.2200,4.5076,7.8883
135.2400,4.5083,7.8898
135.2600,4.5089,7.8902
135.2800,4.5094,7.8888
135.3000,4.5099,7.8859
135.3200,4.5106,7.8825
135.3400,4.5113,7.8805
135.3600,4.5121,7.8803
135.3800,4.5129,7.8813
135.4000,4.5135,7.8820
135.4200,4.5141,7.8815
135.4400,4.5146,7.8795
135.4600,4.5152,7.8767
135.4800,4.5160,7.8744
135.5000,4.5168,7.8742
135.5200,4.5176,7.8758
135.5400,4.5184,7.8773
135.5600,4.5189,7.8774
135.5800,4.5194,7.8757
135.6000,4.5199,7.8723
135.6200,4.5205,7.8688
135.6400,4.5213,7.8664
135.6600,4.5221,7.8658
135.6800,4.5229,7.8670
135.7000,4.5236,7.8683
135.7200,4.5242,7.8684
135.7400,4.5247,7.8669
135.7600,4.5253,7.8643
135.7800,4.5260,7.8615
135.8000,4.5268,7.8604
135.8200,4.5276,7.8614
135.8400,4.5283,7.8626
135.8600,4.5289,7.8626
135.8800,4.5294,7.8609
135.9000,4.5299,7.8582
135.9200,4.5305,7.8550
135.9400,4.5312,7.8527
135.9600,4.5320,7.8518
135.9800,4.5328,7.8526
136.0000,4.5336,7.8540
136.0200,4.5342,7.8548
136.0400,4.5348,7.8541
136.0600,4.5353,7.8519
136.0800,4.5359,7.8490
136.1000,4.5367,7.8469
136.1200,4.5375,7.8467
136.1400,4.5382,7.8474
136.1600,4.5388,7.8478
136.1800,4.5394,7.8470
136.2000,4.5399,7.8450
136.2200,4.5405,7.8424
136.2400,4.5411,7.8399
136.2600,4.5419,7.8386
136.2800,4.5427,7.8390
136.3000,4.5436,7.8404
136.3200,4.5442,7.8419
136.3400,4.5448,7.8422
136.3600,4.5453,7.8404
136.3800,4.5459,7.8373
136.4000,4.5466,7.8347
136.4200,4.5474,7.8337
136.4400,4.5482,7.8342
136.4600,4.5489,7.8352
136.4800,4.5495,7.8353
136.5000,4.5500,7.8341
136.5200,4.5506,7.8317
136.5400,4.5512,7.8288
136.5600,4.5519,7.8270
136.5800,4.5528,7.8269
136.6000,4.5536,7.8281
136.6200,4.5543,7.8296
136.6400,4.5549,7.8301
136.6600,4.5553,7.8285
136.6800,4.5559,7.8251
136.7000,4.5565,7.8218
136.7200,4.5574,7.8203
136.7400,4.5581,7.8208
136.7600,4.5589,7.8220
136.7800,4.5596,7.8228
136.8000,4.5601,7.8221
136.8200,4.5607,7.8200
136.8400,4.5613,7.8171
136.8600,4.5620,7.8147
136.8800,4.5628,7.8142
136.9000,4.5636,7.8153
136.9200,4.5643,7.8163
136.9400,4.5648,7.8158
136.9600,4.5654,7.8137
136.9800,4.5659,7.8107
137.0000,4.5665,7.8076
137.0200,4.5673,7.8055
137.0400,4.5681,7.8054
137.0600,4.5689,7.8067
137.0800,4.5696,7.8078
137.1000,4.5702,7.8078
137.1200,4.5708,7.8061
137.1400,4.5713,7.8033
137.1600,4.5720,7.8005
137.1800,4.5727,7.7992
137.2000,4.5735,7.7991
137.2200,4.5742,7.7997
137.2400,4.5749,7.7999
137.2600,4.5754,7.7991
137.2800,4.5760,7.7970
137.3000,4.5765,7.7942
137.3200,4.5772,7.7915
137.3400,4.5781,7.7911
137.3600,4.5789,7.7924
137.3800,4.5797,7.7938
137.4000,4.5803,7.7943
137.4200,4.5808,7.7932
137.4400,4.5813,7.7901
137.4600,4.5819,7.7864
137.4800,4.5826,7.7838
137.5000,4.5833,7.7830
137.5200,4.5841,7.7837
137.5400,4.5849,7.7848
137.5600,4.5854,7.7852
137.5800,4.5860,7.7840
137.6000,4.5866,7.7814
137.6200,4.5872,7.7786
137.6400,4.5881,7.7773
137.6600,4.5889,7.7782
137.6800,4.5896,7.7797
137.7000,4.5903,7.7803
137.7200,4.5907,7.7791
137.7400,4.5913,7.7763
137.7600,4.5918,7.7728
137.7800,4.5925,7.7699
137.8000,4.5933,7.7689
137.8200,4.5941,7.7697
137.8400,4.5949,7.7711
137.8600,4.5956,7.7720
137.8800,4.5961,7.7715
137.9000,4.5966,7.7691
137.9200,4.5973,7.7661
137.9400,4.5981,7.7644
137.9600,4.5989,7.7645
137.9800,4.5996,7.7655
138.0000,4.6003,7.7659
138.0200,4.6008,7.7650
138.0400,4.6014,7.7624
138.0600,4.6019,7.7595
138.0800,4.6025,7.7569
138.1000,4.6033,7.7553
138.1200,4.6041,7.7557
138.1400,4.6049,7.7570
138.1600,4.6056,7.7582
138.1800,4.6062,7.7580
138.2000,4.6067,7.7560
138.2200,4.6073,7.7526
138.2400,4.6081,7.7501
138.2600,4.6088,7.7495
138.2800,4.6096,7.7501
138.3000,4.6102,7.7506
138.3200,4.6108,7.7500
138.3400,4.6114,7.7479
138.3600,4.6119,7.7449
138.3800,4.6126,7.7420
138.4000,4.6133,7.7403
138.4200,4.6142,7.7404
138.4400,4.6150,7.7420
138.4600,4.6157,7.7435
138.4800,4.6162,7.7434
138.5000,4.6167,7.7410
138.5200,4.6173,7.7378
138.5400,4.6180,7.7349
138.5600,4.6187,7.7332
138.5800,4.6195,7.7335
138.6000,4.6203,7.7344
138.6200,4.6209,7.7347
138.6400,4.6214,7.7336
138.6600,4.6219,7.7313
138.6800,4.6225,7.7282
138.7000,4.6233,7.7258
138.7200,4.6241,7.7252
138.7400,4.6249,7.7265
138.7600,4.6256,7.7280
138.7800,4.6262,7.7279
138.8000,4.6266,7.7259
138.8200,4.6272,7.7226
138.8400,4.6278,7.7191
138.8600,4.6286,7.7171
138.8800,4.6294,7.7174
138.9000,4.6302,7.7189
138.9200,4.6309,7.7199
138.9400,4.6315,7.7196
138.9600,4.6320,7.7177
138.9800,4.6326,7.7149
139.0000,4.6332,7.7125
139.0200,4.6340,7.7114
139.0400,4.6348,7.7120
139.0600,4.6355,7.7131
139.0800,4.6362,7.7132
139.1000,4.6367,7.7119
139.1200,4.6372,7.7092
139.1400,4.6378,7.7061
139.1600,4.6386,7.7039
139.1800,4.6394,7.7037
139.2000,4.6402,7.7051
139.2200,4.6409,7.7065
139.2400,4.6416,7.7068
139.2600,4.6421,7.7052
139.2800,4.6427,7.7021
139.3000,4.6432,7.6991
139.3200,4.6441,7.6971
139.3400,4.6448,7.6969
139.3600,4.6456,7.6977
139.3800,4.6462,7.6981
139.4000,4.6468,7.6972
139.4200,4.6473,7.6950
139.4400,4.6479,7.6920
139.4600,4.6486,7.6895
139.4800,4.6494,7.6886
139.5000,4.6503,7.6893
139.5200,4.6510,7.6907
139.5400,4.6517,7.6914
139.5600,4.6521,7.6904
139.5800,4.6526,7.6874
139.6000,4.6532,7.6836
139.6200,4.6540,7.6807
139.6400,4.6548,7.6798
139.6600,4.6555,7.6806
139.6800,4.6563,7.6817
139.7000,4.6569,7.6817
139.7200,4.6574,7.6803
139.7400,4.6579,7.6774
139.7600,4.6586,7.6742
139.7800,4.6594,7.6727
139.8000,4.6602,7.6731
139.8200,4.6610,7.6744
139.8400,4.6616,7.6749
139.8600,4.6621,7.6737
139.8800,4.6626,7.6708
139.9000,4.6632,7.6676
139.9200,4.6639,7.6648
139.9400,4.6647,7.6635
139.9600,4.6655,7.6641
139.9800,4.6662,7.6653
140.0000,4.6669,7.6659
140.0200,4.6674,7.6652
140.0400,4.6680,7.6628
140.0600,4.6686,7.6597
140.0800,4.6694,7.6577
140.1000,4.6702,7.6577
140.1200,4.6709,7.6585
140.1400,4.6715,7.6586
140.1600,4.6721,7.6577
140.1800,4.6727,7.6557
140.2000,4.6732,7.6527
140.2200,4.6738,7.6497
140.2400,4.6746,7.6480
140.2600,4.6754,7.6481
140.2800,4.6762,7.6494
140.3000,4.6769,7.6506
140.3200,4.6775,7.6505
140.3400,4.6780,7.6485
140.3600,4.6786,7.6454
140.3800,4.6793,7.6428
140.4000,4.6801,7.6418
140.4200,4.6808,7.6421
140.4400,4.6815,7.6426
140.4600,4.6821,7.6427
140.4800,4.6827,7.6416
140.5000,4.6833,7.6392
140.5200,4.6839,7.6363
140.5400,4.6846,7.6341
140.5600,4.6854,7.6338
140.5800,4.6862,7.6347
140.6000,4.6870,7.6359
140.6200,4.6876,7.6363
140.6400,4.6881,7.6347
140.6600,4.6886,7.6315
140.6800,4.6892,7.6278
140.7000,4.6900,7.6257
140.7200,4.6908,7.6258
140.7400,4.6916,7.6267
140.7600,4.6922,7.6272
140.7800,4.6928,7.6265
140.8000,4.6933,7.6245
140.8200,4.6939,7.6215
140.8400,4.6947,7.6187
140.8600,4.6955,7.6179
140.8800,4.6963,7.6184
140.9000,4.6970,7.6192
140.9200,4.6976,7.6189
140.9400,4.6981,7.6171
140.9600,4.6986,7.6140
140.9800,4.6992,7.6108
141.0000,4.7000,7.6085
141.0200,4.7008,7.6083
141.0400,4.7016,7.6092
141.0600,4.7023,7.6100
141.0800,4.7029,7.6098
141.1000,4.7034,7.6078
141.1200,4.7039,7.6046
141.1400,4.7046,7.6020
141.1600,4.7054,7.6008
141.1800,4.7062,7.6009
141.2000,4.7069,7.6014
141.2200,4.7075,7.6015
141.2400,4.7081,7.6003
141.2600,4.7086,7.5980
141.2800,4.7092,7.5950
141.3000,4.7099,7.5925
141.3200,4.7107,7.5918
141.3400,4.7116,7.5925
141.3600,4.7122,7.5935
141.3800,4.7129,7.5936
141.4000,4.7134,7.5920
141.4200,4.7139,7.5892
141.4400,4.7146,7.5863
141.4600,4.7153,7.5843
141.4800,4.7161,7.5837
141.5000,4.7168,7.5843
141.5200,4.7175,7.5848
141.5400,4.7181,7.5843
141.5600,4.7186,7.5826
141.5800,4.7192,7.5797
141.6000,4.7199,7.5770
141.6200,4.7207,7.5759
141.6400,4.7215,7.5767
141.6600,4.7223,7.5780
141.6800,4.7229,7.5784
141.7000,4.7234,7.5773
141.7200,4.7239,7.5745
141.7400,4.7245,7.5711
141.7600,4.7252,7.5684
141.7800,4.7260,7.5671
141.8000,4.7268,7.5678
141.8200,4.7275,7.5690
141.8400,4.7282,7.5694
141.8600,4.7287,7.5680
141.8800,4.7292,7.5656
141.9000,4.7299,7.5626
141.9200,4.7308,7.5607
141.9400,4.7316,7.5611
141.9600,4.7323,7.5623
141.9800,4.7329,7.5628
142.0000,4.7335,7.5612
142.0200,4.7339,7.5581
142.0400,4.7345,7.5545
142.0600,4.7352,7.5515
142.0800,4.7360,7.5502
142.1000,4.7368,7.5508
142.1200,4.7376,7.5520
142.1400,4.7383,7.5527
142.1600,4.7388,7.5519
142.1800,4.7394,7.5492
142.2000,4.7399,7.5459
142.2200,4.7407,7.5434
142.2400,4.7416,7.5430
142.2600,4.7422,7.5438
142.2800,4.7429,7.5440
142.3000,4.7435,7.5429
142.3200,4.7440,7.5404
142.3400,4.7446,7.5372
142.3600,4.7452,7.5342
142.3800,4.7460,7.5328
142.4000,4.7468,7.5330
142.4200,4.7476,7.5341
142.4400,4.7483,7.5353
142.4600,4.7489,7.5350
142.4800,4.7494,7.5327
142.5000,4.7500,7.5292
142.5200,4.7507,7.5263
142.5400,4.7515,7.5251
142.5600,4.7522,7.5254
142.5800,4.7529,7.5259
142.6000,4.7536,7.5257
142.6200,4.7541,7.5241
142.6400,4.7546,7.5214
142.6600,4.7552,7.5185
142.6800,4.7560,7.5164
142.7000,4.7568,7.5159
142.7200,4.7576,7.5165
142.7400,4.7583,7.5174
142.7600,4.7589,7.5175
142.7800,4.7593,7.5158
142.8000,4.7599,7.5125
142.8200,4.7605,7.5090
142.8400,4.7613,7.5069
142.8600,4.7621,7.5069
142.8800,4.7628,7.5081
142.9000,4.7635,7.5086
142.9200,4.7641,7.5078
142.9400,4.7646,7.5058
142.9600,4.7652,7.5029
142.9800,4.7659,7.5004
143.0000,4.7667,7.4991
143.0200,4.7675,7.4993
143.0400,4.7682,7.5003
143.0600,4.7689,7.5008
143.0800,4.7694,7.4995
143.1000,4.7699,7.4966
143.1200,4.7705,7.4932
143.1400,4.7712,7.4906
143.1600,4.7721,7.4902
143.1800,4.7728,7.4913
143.2000,4.7736,7.4925
143.2200,4.7742,7.4925
143.2400,4.7747,7.4909
143.2600,4.7753,7.4880
143.2800,4.7759,7.4847
143.3000,4.7767,7.4827
143.3200,4.7775,7.4827
143.3400,4.7782,7.4834
143.3600,4.7789,7.4835
143.3800,4.7795,7.4823
143.4000,4.7800,7.4799
143.4200,4.7806,7.4767
143.4400,4.7812,7.4738
143.4600,4.7821,7.4727
143.4800,4.7829,7.4734
143.5000,4.7837,7.4745
143.5200,4.7843,7.4747
143.5400,4.7848,7.4733
143.5600,4.7854,7.4705
143.5800,4.7859,7.4671
143.6000,4.7866,7.4642
143.6200,4.7874,7.4628
143.6400,4.7882,7.4631
143.6600,4.7889,7.4638
143.6800,4.7895,7.4638
143.7000,4.7901,7.4625
143.7200,4.7906,7.4598
143.7400,4.7913,7.4566
143.7600,4.7921,7.4549
143.7800,4.7929,7.4551
143.8000,4.7937,7.4562
143.8200,4.7943,7.4568
143.8400,4.7949,7.4558
143.8600,4.7953,7.4530
143.8800,4.7959,7.4491
143.9000,4.7966,7.4457
143.9200,4.7973,7.4440
143.9400,4.7981,7.4441
143.9600,4.7989,7.4448
143.9800,4.7996,7.4455
144.0000,4.8001,7.4450
144.0200,4.8006,7.4428
144.0400,4.8013,7.4396
144.0600,4.8020,7.4373
144.0800,4.8029,7.4368
144.1000,4.8036,7.4377
144.1200,4.8043,7.4382
144.1400,4.8048,7.4374
144.1600,4.8053,7.4349
144.1800,4.8058,7.4314
144.2000,4.8065,7.4279
144.2200,4.8072,7.4259
144.2400,4.8080,7.4257
144.2600,4.8088,7.4267
144.2800,4.8095,7.4279
144.3000,4.8101,7.4279
144.3200,4.8106,7.4260
144.3400,4.8112,7.4227
144.3600,4.8119,7.4201
144.3800,4.8127,7.4194
144.4000,4.8136,7.4200
144.4200,4.8142,7.4207
144.4400,4.8148,7.4203
144.4600,4.8154,7.4181
144.4800,4.8159,7.4151
144.5000,4.8165,7.4118
144.5200,4.8172,7.4093
144.5400,4.8181,7.4087
144.5600,4.8189,7.4097
144.5800,4.8196,7.4107
144.6000,4.8202,7.4110
144.6200,4.8207,7.4094
144.6400,4.8213,7.4062
144.6600,4.8220,7.4027
144.6800,4.8227,7.4009
144.7000,4.8235,7.4008
144.7200,4.8242,7.4014
144.7400,4.8249,7.4013
144.7600,4.8254,7.4003
144.7800,4.8260,7.3978
144.8000,4.8265,7.3945
144.8200,4.8273,7.3917
144.8400,4.8281,7.3907
144.8600,4.8289,7.3913
144.8800,4.8296,7.3925
144.9000,4.8303,7.3928
144.9200,4.8308,7.3913
144.9400,4.8313,7.3881
144.9600,4.8319,7.3845
144.9800,4.8327,7.3818
145.0000,4.8335,7.3812
145.0200,4.8342,7.3819
145.0400,4.8349,7.3824
145.0600,4.8355,7.3818
145.0800,4.8361,7.3797
145.1000,4.8366,7.3765
145.1200,4.8373,7.3733
145.1400,4.8381,7.3719
145.1600,4.8389,7.3722
145.1800,4.8396,7.3735
145.2000,4.8403,7.3737
145.2200,4.8408,7.3719
145.2400,4.8412,7.3687
145.2600,4.8418,7.3648
145.2800,4.8426,7.3619
145.3000,4.8434,7.3610
145.3200,4.8442,7.3621
145.3400,4.8449,7.3633
145.3600,4.8455,7.3634
145.3800,4.8461,7.3616
145.4000,4.8466,7.3586
145.4200,4.8472,7.3553
145.4400,4.8480,7.3529
145.4600,4.8488,7.3526
145.4800,4.8496,7.3534
145.5000,4.8502,7.3535
145.5200,4.8508,7.3525
145.5400,4.8513,7.3502
145.5600,4.8518,7.3469
145.5800,4.8525,7.3437
145.6000,4.8534,7.3424
145.6200,4.8542,7.3433
145.6400,4.8549,7.3447
145.6600,4.8556,7.3453
145.6800,4.8561,7.3441
145.7000,4.8567,7.3412
145.7200,4.8572,7.3377
145.7400,4.8579,7.3349
145.7600,4.8587,7.3335
145.7800,4.8595,7.3339
145.8000,4.8602,7.3347
145.8200,4.8608,7.3345
145.8400,4.8614,7.3328
145.8600,4.8619,7.3300
145.8800,4.8626,7.3269
145.9000,4.8633,7.3250
145.9200,4.8642,7.3248
145.9400,4.8649,7.3259
145.9600,4.8656,7.3265
145.9800,4.8662,7.3258
146.0000,4.8667,7.3234
146.0200,4.8672,7.3199
146.0400,4.8679,7.3166
146.0600,4.8687,7.3144
146.0800,4.8695,7.3143
146.1000,4.8702,7.3151
146.1200,4.8709,7.3154
146.1400,4.8714,7.3144
146.1600,4.8720,7.3119
146.1800,4.8726,7.3085
146.2000,4.8733,7.3058
146.2200,4.8741,7.3050
146.2400,4.8749,7.3056
146.2600,4.8756,7.3062
146.2800,4.8762,7.3057
146.3000,4.8767,7.3035
146.3200,4.8772,7.3003
146.3400,4.8779,7.2969
146.3600,4.8786,7.2947
146.3800,4.8794,7.2945
146.4000,4.8802,7.2954
146.4200,4.8809,7.2959
146.4400,4.8815,7.2955
146.4600,4.8820,7.2934
146.4800,4.8826,7.2899
146.5000,4.8834,7.2868
146.5200,4.8842,7.2856
146.5400,4.8849,7.2859
146.5600,4.8856,7.2863
146.5800,4.8862,7.2854
146.6000,4.8867,7.2833
146.6200,4.8872,7.2803
146.6400,4.8879,7.2770
146.6600,4.8886,7.2746
146.6800,4.8894,7.2738
146.7000,4.8902,7.2746
146.7200,4.8909,7.2757
146.7400,4.8916,7.2758
146.7600,4.8921,7.2740
146.7800,4.8926,7.2709
146.8000,4.8933,7.2676
146.8200,4.8940,7.2657
146.8400,4.8948,7.2652
146.8600,4.8955,7.2653
146.8800,4.8962,7.2653
146.9000,4.8967,7.2645
146.9200,4.8973,7.2624
146.9400,4.8978,7.2591
146.9600,4.8985,7.2562
146.9800,4.8993,7.2546
147.0000,4.9001,7.2549
147.0200,4.9009,7.2559
147.0400,4.9016,7.2565
147.0600,4.9021,7.2556
147.0800,4.9026,7.2529
147.1000,4.9032,7.2492
147.1200,4.9039,7.2461
147.1400,4.9047,7.2449
147.1600,4.9055,7.2452
147.1800,4.9062,7.2458
147.2000,4.9068,7.2456
147.2200,4.9074,7.2441
147.2400,4.9079,7.2413
147.2600,4.9086,7.2384
147.2800,4.9094,7.2363
147.3000,4.9102,7.2361
147.3200,4.9109,7.2367
147.3400,4.9116,7.2371
147.3600,4.9121,7.2357
147.3800,4.9127,7.2326
147.4000,4.9132,7.2292
147.4200,4.9139,7.2259
147.4400,4.9147,7.2243
147.4600,4.9155,7.2246
147.4800,4.9162,7.2252
147.5000,4.9169,7.2253
147.5200,4.9174,7.2241
147.5400,4.9180,7.2214
147.5600,4.9186,7.2184
147.5800,4.9194,7.2162
147.6000,4.9202,7.2157
147.6200,4.9209,7.2160
147.6400,4.9216,7.2162
147.6600,4.9221,7.2152
147.6800,4.9227,7.2128
147.7000,4.9232,7.2093
147.7200,4.9239,7.2061
147.7400,4.9247,7.2043
147.7600,4.9255,7.2044
147.7800,4.9263,7.2052
147.8000,4.9270,7.2054
147.8200,4.9275,7.2042
147.8400,4.9280,7.2015
147.8600,4.9286,7.1981
147.8800,4.9293,7.1952
147.9000,4.9301,7.1939
147.9200,4.9308,7.1939
147.9400,4.9315,7.1943
147.9600,4.9322,7.1943
147.9800,4.9327,7.1929
148.0000,4.9333,7.1902
148.0200,4.9339,7.1869
148.0400,4.9347,7.1845
148.0600,4.9355,7.1845
148.0800,4.9363,7.1854
148.1000,4.9370,7.1856
148.1200,4.9375,7.1846
148.1400,4.9380,7.1819
148.1600,4.9385,7.1782
148.1800,4.9392,7.1747
148.2000,4.9399,7.1723
148.2200,4.9407,7.1720
148.2400,4.9415,7.1729
148.2600,4.9422,7.1733
148.2800,4.9428,7.1724
148.3000,4.9432,7.1703
148.3200,4.9438,7.1670
148.3400,4.9446,7.1643
148.3600,4.9455,7.1637
148.3800,4.9463,7.1644
148.4000,4.9469,7.1651
148.4200,4.9475,7.1644
148.4400,4.9480,7.1616
148.4600,4.9486,7.1580
148.4800,4.9491,7.1542
148.5000,4.9499,7.1516
148.5200,4.9507,7.1513
148.5400,4.9516,7.1522
148.5600,4.9522,7.1530
148.5800,4.9528,7.1528
148.6000,4.9533,7.1507
148.6200,4.9539,7.1472
148.6400,4.9547,7.1441
148.6600,4.9555,7.1430
148.6800,4.9562,7.1435
148.7000,4.9569,7.1438
148.7200,4.9575,7.1429
148.7400,4.9581,7.1406
148.7600,4.9586,7.1375
148.7800,4.9592,7.1343
148.8000,4.9600,7.1318
148.8200,4.9608,7.1312
148.8400,4.9616,7.1317
148.8600,4.9623,7.1326
148.8800,4.9630,7.1326
148.9000,4.9634,7.1307
148.9200,4.9640,7.1273
148.9400,4.9646,7.1237
148.9600,4.9654,7.1212
148.9800,4.9662,7.1207
149.0000,4.9669,7.1210
149.0200,4.9676,7.1208
149.0400,4.9682,7.1195
149.0600,4.9687,7.1169
149.0800,4.9692,7.1136
149.1000,4.9699,7.1107
149.1200,4.9707,7.1093
149.1400,4.9715,7.1093
149.1600,4.9723,7.1102
149.1800,4.9730,7.1106
149.2000,4.9735,7.1093
149.2200,4.9740,7.1060
149.2400,4.9745,7.1018
149.2600,4.9753,7.0988
149.2800,4.9761,7.0979
149.3000,4.9769,7.0985
149.3200,4.9776,7.0990
149.3400,4.9782,7.0983
149.3600,4.9788,7.0962
149.3800,4.9793,7.0933
149.4000,4.9799,7.0901
149.4200,4.9806,7.0877
149.4400,4.9814,7.0871
149.4600,4.9822,7.0877
149.4800,4.9829,7.0881
149.5000,4.9834,7.0873
149.5200,4.9840,7.0847
149.5400,4.9845,7.0811
149.5600,4.9852,7.0775
149.5800,4.9860,7.0759
149.6000,4.9868,7.0762
149.6200,4.9876,7.0771
149.6400,4.9882,7.0772
149.6600,4.9887,7.0760
149.6800,4.9893,7.0733
149.7000,4.9899,7.0701
149.7200,4.9906,7.0674
149.7400,4.9914,7.0663
149.7600,4.9922,7.0666
149.7800,4.9929,7.0668
149.8000,4.9935,7.0661
149.8200,4.9940,7.0640
149.8400,4.9946,7.0607
149.8600,4.9952,7.0574
149.8800,4.9960,7.0552
149.9000,4.9968,7.0550
149.9200,4.9976,7.0558
149.9400,4.9983,7.0562
149.9600,4.9989,7.0555
149.9800,4.9994,7.0532
150.0000,4.9999,7.0496
150.0200,5.0006,7.0460
150.0400,5.0013,7.0437
150.0600,5.0021,7.0431
150.0800,5.0029,7.0434
150.1000,5.0035,7.0433
150.1200,5.0041,7.0421
150.1400,5.0046,7.0395
150.1600,5.0052,7.0361
150.1800,5.0060,7.0334
150.2000,5.0068,7.0326
150.2200,5.0076,7.0333
150.2400,5.0084,7.0341
150.2600,5.0090,7.0337
150.2800,5.0095,7.0314
150.3000,5.0099,7.0273
150.3200,5.0106,7.0230
150.3400,5.0113,7.0204
150.3600,5.0121,7.0195
150.3800,5.0129,7.0199
150.4000,5.0136,7.0205
150.4200,5.0142,7.0200
150.4400,5.0147,7.0179
150.4600,5.0152,7.0145
150.4800,5.0160,7.0113
150.5000,5.0169,7.0099
150.5200,5.0177,7.0102
150.5400,5.0184,7.0109
150.5600,5.0189,7.0103
150.5800,5.0194,7.0080
150.6000,5.0200,7.0043
150.6200,5.0206,7.0003
150.6400,5.0212,6.9972
150.6600,5.0221,6.9962
150.6800,5.0229,6.9967
150.7000,5.0236,6.9975
150.7200,5.0242,6.9976
150.7400,5.0247,6.9957
150.7600,5.0253,6.9925
150.7800,5.0260,6.9892
150.8000,5.0267,6.9872
150.8200,5.0275,6.9869
150.8400,5.0282,6.9872
150.8600,5.0289,6.9869
150.8800,5.0294,6.9852
150.9000,5.0299,6.9822
150.9200,5.0305,6.9786
150.9400,5.0312,6.9752
150.9600,5.0320,6.9736
150.9800,5.0328,6.9740
151.0000,5.0336,6.9750
151.0200,5.0342,6.9755
151.0400,5.0347,6.9744
151.0600,5.0353,6.9716
151.0800,5.0359,6.9679
151.1000,5.0366,6.9649
151.1200,5.0374,6.9640
151.1400,5.0382,6.9645
151.1600,5.0388,6.9646
151.1800,5.0395,6.9639
151.2000,5.0399,6.9616
151.2200,5.0405,6.9585
151.2400,5.0412,6.9549
151.2600,5.0420,6.9527
151.2800,5.0428,6.9526
151.3000,5.0436,6.9535
151.3200,5.0443,6.9541
151.3400,5.0448,6.9531
151.3600,5.0454,6.9503
151.3800,5.0459,6.9464
151.4000,5.0466,6.9428
151.4200,5.0474,6.9409
151.4400,5.0482,6.9407
151.4600,5.0489,6.9411
151.4800,5.0495,6.9405
151.5000,5.0501,6.9386
151.5200,5.0506,6.9354
151.5400,5.0512,6.9318
151.5600,5.0520,6.9289
151.5800,5.0529,6.9281
151.6000,5.0537,6.9290
151.6200,5.0543,6.9297
151.6400,5.0549,6.9285
151.6600,5.0554,6.9252
151.6800,5.0559,6.9211
151.7000,5.0566,6.9172
151.7200,5.0574,6.9152
151.7400,5.0582,6.9155
151.7600,5.0590,6.9164
151.7800,5.0596,6.9164
151.8000,5.0602,6.9151
151.8200,5.0607,6.9122
151.8400,5.0613,6.9085
151.8600,5.0620,6.9053
151.8800,5.0628,6.9039
151.9000,5.0636,6.9041
151.9200,5.0643,6.9045
151.9400,5.0649,6.9036
151.9600,5.0653,6.9011
151.9800,5.0659,6.8977
152.0000,5.0665,6.8941
152.0200,5.0673,6.8917
152.0400,5.0681,6.8914
152.0600,5.0689,6.8925
152.0800,5.0696,6.8932
152.1000,5.0702,6.8923
152.1200,5.0707,6.8896
152.1400,5.0713,6.8860
152.1600,5.0719,6.8825
152.1800,5.0727,6.8805
152.2000,5.0735,6.8801
152.2200,5.0742,6.8802
152.2400,5.0748,6.8798
152.2600,5.0754,6.8782
152.2800,5.0759,6.8753
152.3000,5.0765,6.8718
152.3200,5.0772,6.8689
152.3400,5.0780,6.8676
152.3600,5.0789,6.8681
152.3800,5.0796,6.8689
152.4000,5.0802,6.8689
152.4200,5.0808,6.8670
152.4400,5.0812,6.8636
152.4600,5.0818,6.8596
152.4800,5.0826,6.8563
152.5000,5.0834,6.8553
152.5200,5.0841,6.8558
152.5400,5.0849,6.8561
152.5600,5.0855,6.8553
152.5800,5.0860,6.8529
152.6000,5.0866,6.8493
152.6200,5.0872,6.8459
152.6400,5.0881,6.8441
152.6600,5.0889,6.8440
152.6800,5.0896,6.8446
152.7000,5.0902,6.8442
152.7200,5.0908,6.8423
152.7400,5.0913,6.8389
152.7600,5.0919,6.8351
152.7800,5.0926,6.8322
152.8000,5.0934,6.8308
152.8200,5.0942,6.8307
152.8400,5.0949,6.8310
152.8600,5.0956,6.8307
152.8800,5.0961,6.8290
152.9000,5.0966,6.8258
152.9200,5.0973,6.8223
152.9400,5.0981,6.8199
152.9600,5.0989,6.8193
152.9800,5.0996,6.8193
153.0000,5.1002,6.8187
153.0200,5.1008,6.8169
153.0400,5.1013,6.8139
153.0600,5.1019,6.8102
153.0800,5.1025,6.8069
153.1000,5.1033,6.8050
153.1200,5.1042,6.8050
153.1400,5.1049,6.8058
153.1600,5.1056,6.8060
153.1800,5.1062,6.8047
153.2000,5.1067,6.8017
153.2200,5.1073,6.7981
153.2400,5.1080,6.7948
153.2600,5.1088,6.7933
153.2800,5.1095,6.7929
153.3000,5.1102,6.7925
153.3200,5.1109,6.7916
153.3400,5.1114,6.7892
153.3600,5.1119,6.7858
153.3800,5.1125,6.7823
153.4000,5.1133,6.7800
153.4200,5.1141,6.7793
153.4400,5.1149,6.7797
153.4600,5.1156,6.7800
153.4800,5.1162,6.7793
153.5000,5.1167,6.7767
153.5200,5.1172,6.7727
153.5400,5.1179,6.7686
153.5600,5.1186,6.7661
153.5800,5.1194,6.7658
153.6000,5.1201,6.7661
153.6200,5.1208,6.7659
153.6400,5.1214,6.7645
153.6600,5.1220,6.7619
153.6800,5.1226,6.7584
153.7000,5.1233,6.7556
153.7200,5.1241,6.7545
153.7400,5.1249,6.7548
153.7600,5.1256,6.7552
153.7800,5.1261,6.7544
153.8000,5.1267,6.7517
153.8200,5.1272,6.7478
153.8400,5.1279,6.7440
153.8600,5.1286,6.7415
153.8800,5.1294,6.7407
153.9000,5.1302,6.7410
153.9200,5.1309,6.7412
153.9400,5.1315,6.7402
153.9600,5.1320,6.7376
153.9800,5.1326,6.7340
154.0000,5.1333,6.7309
154.0200,5.1341,6.7292
154.0400,5.1349,6.7288
154.0600,5.1356,6.7286
154.0800,5.1362,6.7277
154.1000,5.1367,6.7254
154.1200,5.1373,6.7217
154.1400,5.1379,6.7178
154.1600,5.1386,6.7150
154.1800,5.1395,6.7140
154.2000,5.1402,6.7145
154.2200,5.1409,6.7149
154.2400,5.1416,6.7139
154.2600,5.1421,6.7113
154.2800,5.1426,6.7076
154.3000,5.1433,6.7039
154.3200,5.1440,6.7015
154.3400,5.1448,6.7007
154.3600,5.1455,6.7007
154.3800,5.1462,6.7003
154.4000,5.1468,6.6987
154.4200,5.1473,6.6958
154.4400,5.1479,6.6922
154.4600,5.1486,6.6888
154.4800,5.1494,6.6872
154.5000,5.1502,6.6875
154.5200,5.1510,6.6881
154.5400,5.1516,6.6877
154.5600,5.1521,6.6853
154.5800,5.1527,6.6813
154.6000,5.1532,6.6770
154.6200,5.1539,6.6738
154.6400,5.1547,6.6726
154.6600,5.1555,6.6727
154.6800,5.1562,6.6727
154.7000,5.1568,6.6718
154.7200,5.1574,6.6694
154.7400,5.1579,6.6659
154.7600,5.1586,6.6623
154.7800,5.1594,6.6604
154.8000,5.1603,6.6607
154.8200,5.1610,6.6613
154.8400,5.1616,6.6605
154.8600,5.1621,6.6580
154.8800,5.1626,6.6543
154.9000,5.1632,6.6502
154.9200,5.1639,6.6467
154.9400,5.1646,6.6450
154.9600,5.1655,6.6451
154.9800,5.1662,6.6456
155.0000,5.1669,6.6455
155.0200,5.1673,6.6437
155.0400,5.1679,6.6402
155.0600,5.1686,6.6365
155.0800,5.1694,6.6340
155.1000,5.1702,6.6335
155.1200,5.1709,6.6337
155.1400,5.1715,6.6331
155.1600,5.1721,6.6311
155.1800,5.1726,6.6276
155.2000,5.1732,6.6236
155.2200,5.1739,6.6201
155.2400,5.1746,6.6181
155.2600,5.1755,6.6177
155.2800,5.1762,6.6181
155.3000,5.1769,6.6180
155.3200,5.1775,6.6166
155.3400,5.1780,6.6135
155.3600,5.1786,6.6094
155.3800,5.1793,6.6057
155.4000,5.1801,6.6038
155.4200,5.1809,6.6035
155.4400,5.1816,6.6033
155.4600,5.1822,6.6019
155.4800,5.1827,6.5990
155.5000,5.1832,6.5955
155.5200,5.1839,6.5919
155.5400,5.1846,6.5892
155.5600,5.1855,6.5883
155.5800,5.1863,6.5885
155.6000,5.1870,6.5887
155.6200,5.1876,6.5875
155.6400,5.1880,6.5844
155.6600,5.1886,6.5796
155.6800,5.1892,6.5750
155.7000,5.1901,6.5724
155.7200,5.1909,6.5717
155.7400,5.1916,6.5717
155.7600,5.1922,6.5708
155.7800,5.1928,6.5681
155.8000,5.1933,6.5636
155.8200,5.1939,6.5584
155.8400,5.1951,5.8857
155.8520,5.1964,3.7015
